TITLE	
DATA TYPE	
ORIGIN	JASCO
OWNER	
DATE	22/04/20
TIME	12:02:21
SPECTROMETER/DATA SYSTEM	
RESOLUTION	
DELTAX	0.5
XUNITS	SEC
YUNITS	INTENSITY
FIRSTX	0.0000
LASTX	4065.0000
NPOINTS	8131
FIRSTY	497.20023
MAXY	618.12921
MINY	-119.08036
XYDATA
0.0000	497.2
0.5000	497.124
1.0000	497.064
1.5000	497.071
2.0000	497.005
2.5000	497.114
3.0000	497.162
3.5000	497.249
4.0000	497.27
4.5000	497.298
5.0000	497.386
5.5000	497.358
6.0000	497.408
6.5000	497.455
7.0000	497.487
7.5000	497.444
8.0000	497.409
8.5000	497.459
9.0000	497.519
9.5000	497.702
10.0000	497.831
10.5000	497.941
11.0000	497.92
11.5000	497.963
12.0000	497.965
12.5000	497.944
13.0000	497.959
13.5000	497.891
14.0000	497.934
14.5000	497.963
15.0000	498.022
15.5000	498.085
16.0000	498.252
16.5000	498.316
17.0000	498.355
17.5000	498.517
18.0000	498.536
18.5000	498.56
19.0000	498.657
19.5000	498.681
20.0000	498.61
20.5000	498.601
21.0000	498.61
21.5000	498.632
22.0000	498.66
22.5000	498.66
23.0000	498.616
23.5000	498.585
24.0000	498.654
24.5000	498.656
25.0000	498.696
25.5000	498.704
26.0000	498.729
26.5000	498.929
27.0000	498.997
27.5000	498.999
28.0000	499.032
28.5000	498.999
29.0000	499.079
29.5000	499.264
30.0000	499.357
30.5000	499.329
31.0000	499.324
31.5000	499.276
32.0000	499.282
32.5000	499.362
33.0000	499.364
33.5000	499.339
34.0000	499.271
34.5000	499.268
35.0000	499.368
35.5000	499.42
36.0000	499.518
36.5000	499.493
37.0000	499.421
37.5000	499.472
38.0000	499.437
38.5000	499.558
39.0000	499.711
39.5000	499.67
40.0000	499.688
40.5000	499.691
41.0000	499.594
41.5000	499.619
42.0000	499.671
42.5000	499.706
43.0000	499.771
43.5000	499.768
44.0000	499.804
44.5000	499.802
45.0000	499.763
45.5000	499.785
46.0000	499.706
46.5000	499.711
47.0000	499.762
47.5000	499.862
48.0000	499.923
48.5000	499.93
49.0000	499.88
49.5000	499.819
50.0000	499.852
50.5000	499.795
51.0000	499.835
51.5000	499.835
52.0000	499.871
52.5000	499.92
53.0000	500.045
53.5000	500.034
54.0000	500.008
54.5000	499.95
55.0000	499.827
55.5000	499.882
56.0000	499.941
56.5000	500.031
57.0000	500.001
57.5000	500.092
58.0000	500.049
58.5000	500.018
59.0000	500.136
59.5000	499.971
60.0000	500.069
60.5000	500.098
61.0000	500.221
61.5000	500.359
62.0000	500.282
62.5000	500.367
63.0000	500.249
63.5000	500.242
64.0000	500.261
64.5000	500.187
65.0000	500.124
65.5000	500.106
66.0000	500.167
66.5000	500.167
67.0000	500.19
67.5000	500.26
68.0000	500.173
68.5000	500.187
69.0000	500.239
69.5000	500.052
70.0000	500.109
70.5000	500.167
71.0000	500.137
71.5000	500.176
72.0000	500.276
72.5000	500.224
73.0000	500.223
73.5000	500.349
74.0000	500.223
74.5000	500.282
75.0000	500.346
75.5000	500.275
76.0000	500.326
76.5000	500.348
77.0000	500.358
77.5000	500.376
78.0000	500.315
78.5000	500.177
79.0000	500.148
79.5000	500.132
80.0000	500.153
80.5000	500.243
81.0000	500.203
81.5000	500.203
82.0000	500.2
82.5000	500.218
83.0000	500.393
83.5000	500.445
84.0000	500.407
84.5000	500.403
85.0000	500.215
85.5000	500.234
86.0000	500.235
86.5000	500.211
87.0000	500.256
87.5000	500.257
88.0000	500.321
88.5000	500.364
89.0000	500.368
89.5000	500.278
90.0000	500.253
90.5000	500.271
91.0000	500.18
91.5000	500.347
92.0000	500.294
92.5000	500.161
93.0000	500.231
93.5000	500.113
94.0000	500.11
94.5000	500.136
95.0000	500.136
95.5000	500.062
96.0000	500.142
96.5000	500.126
97.0000	500.176
97.5000	500.267
98.0000	500.143
98.5000	500.169
99.0000	500.164
99.5000	500.127
100.0000	500.253
100.5000	500.246
101.0000	500.196
101.5000	500.233
102.0000	500.095
102.5000	500.087
103.0000	499.995
103.5000	500.001
104.0000	500.056
104.5000	499.889
105.0000	499.839
105.5000	499.812
106.0000	499.775
106.5000	499.888
107.0000	500.04
107.5000	500.011
108.0000	500.086
108.5000	500.115
109.0000	500.062
109.5000	500.036
110.0000	499.932
110.5000	499.959
111.0000	499.875
111.5000	499.943
112.0000	500.033
112.5000	499.943
113.0000	499.901
113.5000	499.712
114.0000	499.656
114.5000	499.625
115.0000	499.688
115.5000	499.756
116.0000	499.729
116.5000	499.694
117.0000	499.678
117.5000	499.71
118.0000	499.809
118.5000	499.903
119.0000	499.885
119.5000	499.862
120.0000	499.751
120.5000	499.73
121.0000	499.679
121.5000	499.683
122.0000	499.597
122.5000	499.589
123.0000	499.552
123.5000	499.516
124.0000	499.612
124.5000	499.53
125.0000	499.477
125.5000	499.417
126.0000	499.365
126.5000	499.282
127.0000	499.513
127.5000	499.552
128.0000	499.511
128.5000	499.63
129.0000	499.454
129.5000	499.431
130.0000	499.41
130.5000	493.877
131.0000	476.026
131.5000	446.271
132.0000	357.358
132.5000	-119.08
133.0000	-47.8711
133.5000	-34.4313
134.0000	-31.1058
134.5000	-29.6228
135.0000	-28.6238
135.5000	-27.969
136.0000	-27.3609
136.5000	-26.9135
137.0000	-26.7112
137.5000	-26.4949
138.0000	-26.4968
138.5000	208.519
139.0000	280.689
139.5000	278.731
140.0000	277.345
140.5000	264.607
141.0000	257.25
141.5000	256.873
142.0000	256.965
142.5000	257.049
143.0000	257.194
143.5000	257.368
144.0000	257.598
144.5000	257.901
145.0000	258.203
145.5000	258.482
146.0000	258.787
146.5000	259.007
147.0000	259.247
147.5000	259.485
148.0000	259.682
148.5000	259.973
149.0000	260.221
149.5000	260.478
150.0000	260.72
150.5000	260.985
151.0000	261.248
151.5000	261.527
152.0000	261.853
152.5000	262.112
153.0000	262.358
153.5000	262.602
154.0000	262.815
154.5000	263.042
155.0000	263.315
155.5000	263.603
156.0000	263.876
156.5000	264.165
157.0000	264.414
157.5000	264.621
158.0000	264.861
158.5000	265.106
159.0000	265.377
159.5000	265.652
160.0000	265.882
160.5000	266.077
161.0000	266.31
161.5000	266.572
162.0000	266.858
162.5000	267.167
163.0000	267.437
163.5000	267.69
164.0000	267.915
164.5000	268.123
165.0000	268.307
165.5000	268.552
166.0000	268.833
166.5000	269.08
167.0000	269.345
167.5000	269.587
168.0000	269.801
168.5000	270.053
169.0000	270.311
169.5000	270.532
170.0000	270.697
170.5000	270.975
171.0000	271.246
171.5000	271.443
172.0000	271.791
172.5000	272.043
173.0000	272.259
173.5000	272.55
174.0000	272.787
174.5000	273.024
175.0000	273.288
175.5000	273.539
176.0000	273.786
176.5000	273.985
177.0000	274.211
177.5000	274.42
178.0000	274.665
178.5000	274.964
179.0000	275.206
179.5000	275.489
180.0000	275.753
180.5000	275.956
181.0000	276.161
181.5000	276.407
182.0000	276.633
182.5000	276.834
183.0000	277.108
183.5000	277.318
184.0000	277.544
184.5000	277.854
185.0000	278.111
185.5000	278.381
186.0000	278.613
186.5000	278.827
187.0000	279.075
187.5000	279.289
188.0000	279.545
188.5000	279.771
189.0000	280.012
189.5000	280.298
190.0000	280.575
190.5000	280.801
191.0000	281.059
191.5000	281.286
192.0000	281.486
192.5000	281.77
193.0000	281.938
193.5000	282.16
194.0000	282.351
194.5000	282.553
195.0000	282.845
195.5000	283.059
196.0000	283.325
196.5000	283.597
197.0000	283.784
197.5000	283.982
198.0000	284.262
198.5000	284.506
199.0000	284.769
199.5000	285.039
200.0000	285.249
200.5000	285.489
201.0000	285.705
201.5000	285.929
202.0000	286.103
202.5000	286.349
203.0000	286.609
203.5000	286.896
204.0000	287.136
204.5000	287.365
205.0000	287.577
205.5000	287.769
206.0000	288.045
206.5000	288.217
207.0000	288.456
207.5000	288.737
208.0000	288.95
208.5000	289.231
209.0000	289.471
209.5000	289.697
210.0000	289.909
210.5000	290.151
211.0000	290.35
211.5000	290.546
212.0000	290.823
212.5000	291.044
213.0000	291.3
213.5000	291.508
214.0000	291.734
214.5000	291.918
215.0000	292.202
215.5000	292.467
216.0000	292.677
216.5000	292.949
217.0000	293.193
217.5000	293.358
218.0000	293.58
218.5000	293.824
219.0000	294.025
219.5000	294.304
220.0000	294.587
220.5000	294.779
221.0000	294.936
221.5000	295.192
222.0000	295.383
222.5000	295.591
223.0000	295.805
223.5000	296.046
224.0000	296.296
224.5000	296.564
225.0000	296.891
225.5000	297.106
226.0000	297.364
226.5000	297.578
227.0000	297.778
227.5000	298.021
228.0000	298.252
228.5000	298.503
229.0000	298.75
229.5000	298.964
230.0000	299.223
230.5000	299.473
231.0000	299.738
231.5000	299.978
232.0000	300.17
232.5000	300.387
233.0000	300.579
233.5000	300.845
234.0000	301.095
234.5000	301.453
235.0000	301.716
235.5000	301.941
236.0000	302.148
236.5000	302.282
237.0000	302.517
237.5000	302.772
238.0000	303.057
238.5000	303.333
239.0000	303.535
239.5000	303.816
240.0000	304.049
240.5000	304.241
241.0000	304.498
241.5000	304.651
242.0000	304.904
242.5000	305.128
243.0000	305.361
243.5000	305.658
244.0000	305.887
244.5000	306.146
245.0000	306.464
245.5000	306.722
246.0000	306.905
246.5000	307.181
247.0000	307.361
247.5000	307.585
248.0000	307.879
248.5000	308.119
249.0000	308.395
249.5000	308.618
250.0000	308.878
250.5000	309.186
251.0000	309.464
251.5000	309.775
252.0000	310.073
252.5000	310.261
253.0000	310.546
253.5000	310.805
254.0000	310.99
254.5000	311.287
255.0000	311.528
255.5000	311.719
256.0000	311.976
256.5000	312.216
257.0000	312.406
257.5000	312.755
258.0000	313.057
258.5000	313.311
259.0000	313.569
259.5000	313.785
260.0000	314.052
260.5000	314.285
261.0000	314.57
261.5000	314.785
262.0000	315.056
262.5000	315.37
263.0000	315.701
263.5000	315.981
264.0000	316.197
264.5000	316.426
265.0000	316.701
265.5000	317.067
266.0000	317.396
266.5000	317.715
267.0000	317.956
267.5000	318.183
268.0000	318.411
268.5000	318.719
269.0000	319.003
269.5000	319.281
270.0000	319.581
270.5000	319.795
271.0000	320.056
271.5000	320.367
272.0000	320.703
272.5000	320.978
273.0000	321.263
273.5000	321.493
274.0000	321.739
274.5000	322.014
275.0000	322.33
275.5000	322.661
276.0000	322.932
276.5000	323.229
277.0000	323.482
277.5000	323.755
278.0000	324.094
278.5000	324.428
279.0000	324.758
279.5000	325.119
280.0000	325.406
280.5000	325.657
281.0000	325.921
281.5000	326.128
282.0000	326.424
282.5000	326.746
283.0000	327.014
283.5000	327.276
284.0000	327.498
284.5000	327.767
285.0000	328.064
285.5000	328.357
286.0000	328.685
286.5000	329.091
287.0000	329.408
287.5000	329.747
288.0000	330.087
288.5000	330.315
289.0000	330.589
289.5000	330.855
290.0000	331.056
290.5000	331.249
291.0000	331.581
291.5000	331.893
292.0000	332.212
292.5000	332.529
293.0000	332.761
293.5000	333.012
294.0000	333.286
294.5000	333.578
295.0000	333.884
295.5000	334.214
296.0000	334.512
296.5000	334.74
297.0000	334.993
297.5000	335.29
298.0000	335.529
298.5000	335.85
299.0000	336.094
299.5000	336.36
300.0000	336.684
300.5000	336.961
301.0000	337.276
301.5000	337.513
302.0000	337.807
302.5000	338.118
303.0000	338.419
303.5000	338.712
304.0000	338.874
304.5000	339.15
305.0000	339.427
305.5000	339.706
306.0000	340.026
306.5000	340.207
307.0000	340.411
307.5000	340.576
308.0000	340.816
308.5000	341.113
309.0000	341.34
309.5000	341.622
310.0000	341.898
310.5000	342.215
311.0000	342.521
311.5000	342.834
312.0000	343.077
312.5000	343.238
313.0000	343.438
313.5000	343.596
314.0000	343.844
314.5000	344.127
315.0000	344.4
315.5000	344.668
316.0000	344.934
316.5000	345.182
317.0000	345.383
317.5000	345.607
318.0000	345.846
318.5000	346.026
319.0000	346.299
319.5000	346.538
320.0000	346.728
320.5000	346.993
321.0000	347.162
321.5000	347.369
322.0000	347.635
322.5000	347.8
323.0000	348.051
323.5000	348.32
324.0000	348.514
324.5000	348.714
325.0000	348.96
325.5000	349.168
326.0000	349.387
326.5000	349.707
327.0000	349.902
327.5000	350.083
328.0000	350.308
328.5000	350.427
329.0000	350.637
329.5000	350.907
330.0000	351.046
330.5000	351.325
331.0000	351.517
331.5000	351.696
332.0000	351.966
332.5000	352.183
333.0000	352.419
333.5000	352.634
334.0000	352.808
334.5000	352.966
335.0000	353.169
335.5000	353.343
336.0000	353.538
336.5000	353.725
337.0000	353.894
337.5000	354.114
338.0000	354.369
338.5000	354.584
339.0000	354.793
339.5000	355.07
340.0000	355.244
340.5000	355.473
341.0000	355.697
341.5000	355.86
342.0000	356.107
342.5000	356.255
343.0000	356.465
343.5000	356.617
344.0000	356.732
344.5000	356.96
345.0000	357.091
345.5000	357.312
346.0000	357.548
346.5000	357.764
347.0000	358.061
347.5000	358.262
348.0000	358.387
348.5000	358.63
349.0000	358.826
349.5000	359.028
350.0000	359.328
350.5000	359.539
351.0000	359.684
351.5000	359.867
352.0000	360.023
352.5000	360.12
353.0000	360.357
353.5000	360.57
354.0000	360.775
354.5000	360.928
355.0000	361.117
355.5000	361.29
356.0000	361.504
356.5000	361.776
357.0000	361.863
357.5000	362.072
358.0000	362.195
358.5000	362.448
359.0000	362.784
359.5000	362.955
360.0000	363.229
360.5000	363.368
361.0000	363.523
361.5000	363.81
362.0000	364.023
362.5000	364.347
363.0000	364.572
363.5000	364.703
364.0000	364.89
364.5000	365.049
365.0000	365.23
365.5000	365.492
366.0000	365.717
366.5000	365.829
367.0000	366.011
367.5000	366.159
368.0000	366.319
368.5000	366.568
369.0000	366.823
369.5000	367.006
370.0000	367.204
370.5000	367.414
371.0000	367.551
371.5000	367.784
372.0000	368.023
372.5000	368.21
373.0000	368.434
373.5000	368.657
374.0000	368.877
374.5000	368.998
375.0000	369.228
375.5000	369.419
376.0000	369.648
376.5000	369.958
377.0000	370.19
377.5000	370.457
378.0000	370.658
378.5000	370.818
379.0000	370.997
379.5000	371.221
380.0000	371.331
380.5000	371.637
381.0000	371.828
381.5000	371.959
382.0000	372.228
382.5000	372.371
383.0000	372.611
383.5000	372.866
384.0000	373.036
384.5000	373.215
385.0000	373.403
385.5000	373.555
386.0000	373.833
386.5000	374.05
387.0000	374.274
387.5000	374.488
388.0000	374.631
388.5000	374.859
389.0000	375.038
389.5000	375.196
390.0000	375.401
390.5000	375.62
391.0000	375.842
391.5000	376.015
392.0000	376.281
392.5000	376.541
393.0000	376.715
393.5000	376.939
394.0000	377.091
394.5000	377.24
395.0000	377.487
395.5000	377.702
396.0000	377.909
396.5000	378.09
397.0000	378.281
397.5000	378.523
398.0000	378.761
398.5000	378.989
399.0000	379.161
399.5000	379.374
400.0000	379.562
400.5000	379.665
401.0000	379.915
401.5000	380.165
402.0000	380.356
402.5000	380.656
403.0000	380.814
403.5000	380.962
404.0000	381.152
404.5000	381.303
405.0000	381.531
405.5000	381.624
406.0000	381.863
406.5000	382.073
407.0000	382.251
407.5000	382.542
408.0000	382.739
408.5000	383.006
409.0000	383.19
409.5000	383.335
410.0000	383.544
410.5000	383.637
411.0000	383.858
411.5000	384.131
412.0000	384.303
412.5000	384.5
413.0000	384.67
413.5000	384.785
414.0000	384.998
414.5000	385.257
415.0000	385.475
415.5000	385.732
416.0000	385.878
416.5000	386.032
417.0000	386.284
417.5000	386.53
418.0000	386.752
418.5000	386.977
419.0000	387.092
419.5000	387.234
420.0000	387.368
420.5000	387.522
421.0000	387.827
421.5000	388.024
422.0000	388.219
422.5000	388.417
423.0000	388.536
423.5000	388.747
424.0000	388.981
424.5000	389.176
425.0000	389.392
425.5000	389.506
426.0000	389.598
426.5000	389.852
427.0000	390.031
427.5000	390.322
428.0000	390.645
428.5000	390.758
429.0000	390.951
429.5000	391.126
430.0000	391.282
430.5000	391.556
431.0000	391.776
431.5000	391.924
432.0000	392.168
432.5000	392.335
433.0000	392.465
433.5000	392.682
434.0000	392.782
434.5000	392.97
435.0000	393.19
435.5000	393.381
436.0000	393.648
436.5000	393.784
437.0000	393.968
437.5000	394.113
438.0000	394.229
438.5000	394.473
439.0000	394.627
439.5000	394.85
440.0000	395.021
440.5000	395.176
441.0000	395.364
441.5000	395.579
442.0000	395.79
442.5000	395.996
443.0000	396.236
443.5000	396.372
444.0000	396.56
444.5000	396.668
445.0000	396.828
445.5000	396.984
446.0000	397.174
446.5000	397.326
447.0000	397.544
447.5000	397.726
448.0000	397.936
448.5000	398.131
449.0000	398.291
449.5000	398.466
450.0000	398.518
450.5000	398.803
451.0000	398.963
451.5000	399.113
452.0000	399.341
452.5000	399.503
453.0000	399.609
453.5000	399.752
454.0000	400.024
454.5000	400.166
455.0000	400.374
455.5000	400.738
456.0000	400.896
456.5000	401.048
457.0000	401.281
457.5000	401.361
458.0000	401.561
458.5000	401.702
459.0000	401.809
459.5000	402.02
460.0000	402.174
460.5000	402.439
461.0000	402.588
461.5000	402.736
462.0000	402.912
462.5000	403.147
463.0000	403.368
463.5000	403.624
464.0000	403.769
464.5000	403.917
465.0000	404.182
465.5000	404.255
466.0000	404.446
466.5000	404.595
467.0000	404.742
467.5000	404.956
468.0000	405.144
468.5000	405.398
469.0000	405.498
469.5000	405.642
470.0000	405.812
470.5000	405.9
471.0000	406.118
471.5000	406.339
472.0000	406.518
472.5000	406.685
473.0000	406.862
473.5000	406.935
474.0000	407.106
474.5000	407.255
475.0000	407.508
475.5000	407.769
476.0000	407.887
476.5000	408.063
477.0000	408.235
477.5000	408.383
478.0000	408.64
478.5000	408.826
479.0000	408.857
479.5000	409.076
480.0000	409.183
480.5000	409.385
481.0000	409.545
481.5000	409.647
482.0000	409.885
482.5000	410.053
483.0000	410.214
483.5000	410.405
484.0000	410.468
484.5000	410.619
485.0000	410.819
485.5000	410.994
486.0000	411.195
486.5000	411.345
487.0000	411.487
487.5000	411.627
488.0000	411.781
488.5000	411.967
489.0000	412.193
489.5000	412.418
490.0000	412.487
490.5000	412.627
491.0000	412.793
491.5000	412.865
492.0000	413.193
492.5000	413.33
493.0000	413.47
493.5000	413.738
494.0000	413.868
494.5000	413.996
495.0000	414.169
495.5000	414.214
496.0000	414.382
496.5000	414.612
497.0000	414.749
497.5000	415.001
498.0000	415.068
498.5000	415.213
499.0000	415.372
499.5000	415.501
500.0000	415.788
500.5000	415.98
501.0000	416.16
501.5000	416.255
502.0000	416.371
502.5000	416.528
503.0000	416.691
503.5000	416.862
504.0000	416.986
504.5000	417.148
505.0000	417.308
505.5000	417.482
506.0000	417.612
506.5000	417.703
507.0000	417.946
507.5000	418.217
508.0000	418.455
508.5000	418.672
509.0000	418.795
509.5000	418.875
510.0000	419.017
510.5000	419.175
511.0000	419.377
511.5000	419.575
512.0000	419.669
512.5000	419.822
513.0000	419.851
513.5000	419.955
514.0000	420.138
514.5000	420.329
515.0000	420.5
515.5000	420.763
516.0000	420.967
516.5000	421.173
517.0000	421.395
517.5000	421.413
518.0000	421.623
518.5000	421.768
519.0000	421.863
519.5000	422.102
520.0000	422.178
520.5000	422.292
521.0000	422.498
521.5000	422.618
522.0000	422.774
522.5000	422.91
523.0000	423.076
523.5000	423.174
524.0000	423.296
524.5000	423.474
525.0000	423.599
525.5000	423.774
526.0000	423.937
526.5000	423.971
527.0000	424.088
527.5000	424.337
528.0000	424.489
528.5000	424.717
529.0000	424.829
529.5000	424.957
530.0000	425.181
530.5000	425.312
531.0000	425.465
531.5000	425.579
532.0000	425.741
532.5000	425.911
533.0000	426.132
533.5000	426.237
534.0000	426.33
534.5000	426.426
535.0000	426.575
535.5000	426.805
536.0000	426.892
536.5000	427.062
537.0000	427.1
537.5000	427.267
538.0000	427.466
538.5000	427.602
539.0000	427.847
539.5000	427.979
540.0000	428.119
540.5000	428.303
541.0000	428.404
541.5000	428.542
542.0000	428.672
542.5000	428.913
543.0000	429.047
543.5000	429.157
544.0000	429.335
544.5000	429.418
545.0000	429.68
545.5000	429.772
546.0000	429.939
546.5000	430.006
547.0000	430.04
547.5000	430.277
548.0000	430.453
548.5000	430.703
549.0000	430.888
549.5000	430.941
550.0000	430.979
550.5000	431.089
551.0000	431.252
551.5000	431.505
552.0000	431.728
552.5000	431.854
553.0000	432.001
553.5000	432.152
554.0000	432.317
554.5000	432.443
555.0000	432.623
555.5000	432.738
556.0000	432.79
556.5000	432.963
