TITLE	
DATA TYPE	
ORIGIN	JASCO
OWNER	
DATE	21/10/28
TIME	13:35:09
SPECTROMETER/DATA SYSTEM	
RESOLUTION	
DELTAX	1
XUNITS	SEC
YUNITS	INTENSITY
FIRSTX	0.0000
LASTX	5000.0000
NPOINTS	5001
FIRSTY	390.98373
MAXY	508.86420
MINY	-351.00211
XYDATA
0.0000	390.984
1.0000	390.284
2.0000	394.858
3.0000	395.075
4.0000	392.43
5.0000	391.782
6.0000	392.192
7.0000	389.836
8.0000	390.044
9.0000	392.286
10.0000	394.474
11.0000	394.809
12.0000	393.558
13.0000	393.733
14.0000	394.145
15.0000	392.346
16.0000	388.675
17.0000	389.855
18.0000	391.13
19.0000	393.132
20.0000	392.073
21.0000	392.012
22.0000	395.131
23.0000	394.278
24.0000	389.251
25.0000	385.61
26.0000	392.012
27.0000	394.398
28.0000	391.757
29.0000	392.841
30.0000	395.721
31.0000	394.845
32.0000	395.73
33.0000	399.84
34.0000	394.016
35.0000	394.204
36.0000	400.192
37.0000	396.667
38.0000	394.903
39.0000	394.334
40.0000	394.236
41.0000	396.963
42.0000	398.984
43.0000	396.627
44.0000	394.495
45.0000	399.868
46.0000	396.588
47.0000	390.761
48.0000	393.876
49.0000	397.178
50.0000	397.083
51.0000	394.712
52.0000	393.991
53.0000	394.041
54.0000	396.713
55.0000	393.914
56.0000	391.932
57.0000	393.712
58.0000	391.674
59.0000	392.119
60.0000	396.782
61.0000	390.287
62.0000	336.12
63.0000	-351.002
64.0000	-227.535
65.0000	-207.953
66.0000	-201.659
67.0000	245.166
68.0000	230.519
69.0000	196.678
70.0000	195.556
71.0000	197.882
72.0000	197.215
73.0000	195.907
74.0000	196.795
75.0000	196.055
76.0000	196.785
77.0000	194.92
78.0000	196.503
79.0000	200.029
80.0000	197.708
81.0000	197.778
82.0000	200.548
83.0000	203.476
84.0000	206.257
85.0000	205.024
86.0000	202.133
87.0000	203.576
88.0000	206.358
89.0000	204.306
90.0000	203.087
91.0000	203.441
92.0000	203.411
93.0000	207.346
94.0000	209.162
95.0000	206.472
96.0000	206.803
97.0000	208.214
98.0000	207.772
99.0000	206.034
100.0000	205.707
101.0000	206.706
102.0000	208.357
103.0000	210.765
104.0000	209.628
105.0000	210.216
106.0000	211.72
107.0000	211.029
108.0000	209.185
109.0000	209.153
110.0000	210.369
111.0000	212.014
112.0000	213.364
113.0000	211.204
114.0000	211.523
115.0000	214.63
116.0000	215.871
117.0000	217.443
118.0000	217.607
119.0000	215.413
120.0000	216.858
121.0000	218.368
122.0000	219.338
123.0000	219.466
124.0000	218.311
125.0000	219.252
126.0000	218.665
127.0000	221.725
128.0000	222.308
129.0000	219.703
130.0000	217.641
131.0000	217.935
132.0000	221.193
133.0000	220.496
134.0000	220.875
135.0000	222.609
136.0000	222.618
137.0000	223.326
138.0000	224.021
139.0000	224.102
140.0000	223.906
141.0000	224.651
142.0000	226.487
143.0000	227.279
144.0000	228.699
145.0000	226.83
146.0000	225.25
147.0000	224.796
148.0000	225.304
149.0000	227.357
150.0000	227.427
151.0000	227.519
152.0000	228.681
153.0000	231.474
154.0000	231.933
155.0000	227.255
156.0000	228.737
157.0000	231.655
158.0000	228.183
159.0000	229.562
160.0000	233.116
161.0000	234.166
162.0000	234.647
163.0000	235.255
164.0000	233.85
165.0000	232.5
166.0000	232.866
167.0000	234.34
168.0000	236.503
169.0000	234.241
170.0000	234.868
171.0000	238.461
172.0000	238.116
173.0000	236.471
174.0000	238.115
175.0000	240.814
176.0000	240.217
177.0000	238.409
178.0000	236.487
179.0000	236.407
180.0000	236.3
181.0000	238.615
182.0000	241.81
183.0000	239.545
184.0000	236.556
185.0000	238.94
186.0000	242.535
187.0000	241.742
188.0000	243.459
189.0000	244.908
190.0000	242.947
191.0000	245.49
192.0000	245.394
193.0000	243.888
194.0000	244.777
195.0000	243.132
196.0000	242.77
197.0000	244.819
198.0000	244.183
199.0000	242.837
200.0000	244.764
201.0000	245.862
202.0000	246.944
203.0000	249.021
204.0000	249.721
205.0000	248.91
206.0000	249.311
207.0000	250.674
208.0000	249.967
209.0000	250.825
210.0000	250.895
211.0000	251.423
212.0000	253.119
213.0000	254.11
214.0000	254.882
215.0000	256.529
216.0000	252.841
217.0000	251.181
218.0000	254.575
219.0000	253.794
220.0000	255.505
221.0000	255.525
222.0000	253.491
223.0000	252.706
224.0000	254.275
225.0000	258.789
226.0000	257.057
227.0000	253.081
228.0000	253.43
229.0000	255.156
230.0000	259.548
231.0000	261.584
232.0000	259.219
233.0000	258.357
234.0000	258.315
235.0000	257.599
236.0000	260.475
237.0000	262.288
238.0000	262.289
239.0000	264.536
240.0000	263.438
241.0000	260.696
242.0000	259.55
243.0000	260.054
244.0000	262.622
245.0000	265.586
246.0000	266.107
247.0000	263.905
248.0000	262.577
249.0000	263.736
250.0000	264.321
251.0000	266.389
252.0000	266.137
253.0000	262.057
254.0000	264.272
255.0000	268.095
256.0000	267.55
257.0000	267.758
258.0000	267.794
259.0000	268.629
260.0000	270.401
261.0000	272.487
262.0000	270.447
263.0000	269.102
264.0000	268.285
265.0000	268.228
266.0000	274.729
267.0000	271.483
268.0000	270.002
269.0000	272.893
270.0000	272.438
271.0000	273.355
272.0000	274.324
273.0000	274.932
274.0000	275.574
275.0000	275.065
276.0000	274.22
277.0000	274.764
278.0000	271.495
279.0000	269.829
280.0000	272.281
281.0000	275.016
282.0000	274.81
283.0000	274.911
284.0000	275.532
285.0000	276.323
286.0000	279.157
287.0000	277.654
288.0000	276.173
289.0000	278.458
290.0000	279.081
291.0000	278.418
292.0000	279.652
293.0000	281.231
294.0000	279.226
295.0000	278.955
296.0000	282.207
297.0000	281.314
298.0000	277.946
299.0000	278.524
300.0000	280.016
301.0000	282.95
302.0000	286.105
303.0000	283.823
304.0000	281.25
305.0000	281.851
306.0000	283.9
307.0000	282.093
308.0000	279.803
309.0000	282.36
310.0000	286.222
311.0000	286.204
312.0000	285.607
313.0000	284.556
314.0000	285.535
315.0000	287.875
316.0000	288.059
317.0000	288.404
318.0000	286.107
319.0000	285.544
320.0000	286.643
321.0000	289.979
322.0000	289.795
323.0000	286.484
324.0000	288.868
325.0000	289.233
326.0000	288.736
327.0000	289.603
328.0000	291.219
329.0000	290.653
330.0000	290.869
331.0000	293.453
332.0000	292.21
333.0000	290.031
334.0000	291.443
335.0000	292.691
336.0000	291.83
337.0000	291.469
338.0000	292.272
339.0000	294.615
340.0000	291.693
341.0000	289.648
342.0000	290.587
343.0000	288.308
344.0000	291.061
345.0000	294.437
346.0000	293.307
347.0000	293.206
348.0000	295.923
349.0000	296.27
350.0000	296.404
351.0000	297.07
352.0000	295.834
353.0000	297.789
354.0000	299.273
355.0000	297.446
356.0000	294.268
357.0000	296.8
358.0000	300.47
359.0000	298.937
360.0000	298.189
361.0000	298.413
362.0000	299.019
363.0000	300.241
364.0000	299.922
365.0000	298.255
366.0000	298.985
367.0000	299.793
368.0000	300.739
369.0000	302.27
370.0000	301.534
371.0000	302.898
372.0000	301.089
373.0000	300.57
374.0000	304.823
375.0000	306.073
376.0000	304.614
377.0000	304.555
378.0000	304.991
379.0000	306.111
380.0000	305.557
381.0000	300.995
382.0000	302.107
383.0000	302.843
384.0000	304.319
385.0000	307.072
386.0000	307.789
387.0000	306.428
388.0000	305.436
389.0000	308.552
390.0000	308.033
391.0000	306.104
392.0000	307.554
393.0000	310.652
394.0000	311.909
395.0000	313.207
396.0000	311.095
397.0000	307.657
398.0000	307.366
399.0000	306.772
400.0000	308.55
401.0000	306.883
402.0000	306.087
403.0000	306.332
404.0000	308.848
405.0000	313.351
406.0000	311.493
407.0000	311.609
408.0000	311.032
409.0000	309.929
410.0000	310.973
411.0000	311.459
412.0000	312.164
413.0000	314.748
414.0000	317.979
415.0000	319.436
416.0000	316.786
417.0000	312.832
418.0000	312.412
419.0000	315.746
420.0000	318.143
421.0000	313.542
422.0000	313.069
423.0000	317.433
424.0000	313.811
425.0000	313.047
426.0000	315.549
427.0000	316.11
428.0000	314.924
429.0000	315.974
430.0000	317.957
431.0000	317.266
432.0000	318.512
433.0000	318.284
434.0000	318.292
435.0000	318.903
436.0000	319.31
437.0000	319.683
438.0000	315.498
439.0000	317.149
440.0000	320.313
441.0000	321.135
442.0000	323.957
443.0000	323.619
444.0000	324.327
445.0000	323.247
446.0000	321.251
447.0000	321.475
448.0000	322.3
449.0000	322.53
450.0000	323.433
451.0000	320.849
452.0000	322.964
453.0000	326.419
454.0000	323.788
455.0000	326.746
456.0000	326.268
457.0000	322.074
458.0000	325.68
459.0000	327.819
460.0000	327.54
461.0000	329.589
462.0000	325.542
463.0000	321.826
464.0000	325.334
465.0000	330.21
466.0000	328.716
467.0000	325.141
468.0000	327.271
469.0000	327.555
470.0000	326.637
471.0000	325.168
472.0000	328.524
473.0000	330.413
474.0000	327.847
475.0000	327.738
476.0000	329.566
477.0000	331.889
478.0000	331.904
479.0000	331.514
480.0000	329.066
481.0000	327.896
482.0000	329.69
483.0000	331.716
484.0000	335.47
485.0000	336.029
486.0000	333.98
487.0000	331.237
488.0000	329.761
489.0000	333.833
490.0000	336.351
491.0000	333.487
492.0000	331.117
493.0000	331.802
494.0000	336.5
495.0000	336.817
496.0000	331.257
497.0000	334.016
498.0000	336.473
499.0000	336.25
500.0000	335.446
501.0000	334.919
502.0000	336.101
503.0000	336.095
504.0000	334.688
505.0000	335.897
506.0000	334.946
507.0000	335.586
508.0000	338.401
509.0000	339.663
510.0000	340.572
511.0000	337.638
512.0000	338.018
513.0000	340.627
514.0000	339.657
515.0000	336.774
516.0000	337.809
517.0000	337.715
518.0000	338.183
519.0000	343.744
520.0000	344.731
521.0000	341.685
522.0000	340.596
523.0000	339.966
524.0000	340.983
525.0000	340.041
526.0000	340.08
527.0000	343.35
528.0000	343.003
529.0000	343.44
530.0000	342.102
531.0000	339.471
532.0000	342.852
533.0000	343.218
534.0000	341.992
535.0000	341.868
536.0000	341.049
537.0000	341.407
538.0000	341.935
539.0000	342.513
540.0000	343.413
541.0000	344.351
542.0000	343.565
543.0000	343.86
544.0000	347.868
545.0000	348.437
546.0000	345.281
547.0000	345.938
548.0000	351.031
549.0000	353.545
550.0000	347.057
551.0000	342.755
552.0000	342.707
553.0000	347.046
554.0000	353.437
555.0000	350.4
556.0000	345.289
557.0000	345.58
558.0000	348.856
559.0000	347.935
560.0000	346.755
561.0000	347.554
562.0000	348.445
563.0000	347.444
564.0000	346.81
565.0000	349.896
566.0000	350.282
567.0000	347.929
568.0000	347.835
569.0000	347.823
570.0000	349.399
571.0000	352.436
572.0000	354.206
573.0000	355.702
574.0000	352.458
575.0000	351.962
576.0000	352.952
577.0000	352.05
578.0000	350.59
579.0000	348.689
580.0000	354.541
581.0000	357.796
582.0000	352.781
583.0000	351.027
584.0000	351.406
585.0000	350.48
586.0000	350.625
587.0000	352.528
588.0000	354.886
589.0000	356.562
590.0000	356.812
591.0000	356.833
592.0000	354.224
593.0000	352.347
594.0000	355.926
595.0000	357.156
596.0000	356.099
597.0000	356.193
598.0000	356.907
599.0000	357.955
600.0000	358.148
601.0000	358.841
602.0000	358.875
603.0000	356.595
604.0000	356.088
605.0000	357.776
606.0000	358.99
607.0000	361.205
608.0000	361.138
609.0000	359
610.0000	356.645
611.0000	358.006
612.0000	359.371
613.0000	359.761
614.0000	359.044
615.0000	357.106
616.0000	357.803
617.0000	357.572
618.0000	358.189
619.0000	359.889
620.0000	361.299
621.0000	359.701
622.0000	358.695
623.0000	361.743
624.0000	363.687
625.0000	361.172
626.0000	357.484
627.0000	359.489
628.0000	363.163
629.0000	363.382
630.0000	365.35
631.0000	364.63
632.0000	361.222
633.0000	364.978
634.0000	368.483
635.0000	363.318
636.0000	361.707
637.0000	364.974
638.0000	367.836
639.0000	366.948
640.0000	363.943
641.0000	364.717
642.0000	365.857
643.0000	364.319
644.0000	364.82
645.0000	366.082
646.0000	365.49
647.0000	364.647
648.0000	362.19
649.0000	365.653
650.0000	367.736
651.0000	368.837
652.0000	368.608
653.0000	367.03
654.0000	367.098
655.0000	366.705
656.0000	368.031
657.0000	370.335
658.0000	371.209
659.0000	368.294
660.0000	369.228
661.0000	369.662
662.0000	366.568
663.0000	368.01
664.0000	372.508
665.0000	371.519
666.0000	366.393
667.0000	364.33
668.0000	366.112
669.0000	368.611
670.0000	370.998
671.0000	369.265
672.0000	370.434
673.0000	369.946
674.0000	368.258
675.0000	370.857
676.0000	369.279
677.0000	369.242
678.0000	371.08
679.0000	374.524
680.0000	375.186
681.0000	372.848
682.0000	373.263
683.0000	373.642
684.0000	371.775
685.0000	371.141
686.0000	372.326
687.0000	373.435
688.0000	373.428
689.0000	373.841
690.0000	373.99
691.0000	370.403
692.0000	369.867
693.0000	371.578
694.0000	374.148
695.0000	373.453
696.0000	371.561
697.0000	371.914
698.0000	373.405
699.0000	372.388
700.0000	371.24
701.0000	373.748
702.0000	373.506
703.0000	372.644
704.0000	373.882
705.0000	373.318
706.0000	372.557
707.0000	376.085
708.0000	377.489
709.0000	377.705
710.0000	375.889
711.0000	373.512
712.0000	373.977
713.0000	374.497
714.0000	376.027
715.0000	378.256
716.0000	379.917
717.0000	379.571
718.0000	379.993
719.0000	377.415
720.0000	374.654
721.0000	377.095
722.0000	379.642
723.0000	379.922
724.0000	378.964
725.0000	380.817
726.0000	378.405
727.0000	376.745
728.0000	376.303
729.0000	376.572
730.0000	378.95
731.0000	380.136
732.0000	379.637
733.0000	379.47
734.0000	382.169
735.0000	380.464
736.0000	377.39
737.0000	378.558
738.0000	380.395
739.0000	379.694
740.0000	381.473
741.0000	382.673
742.0000	381.279
743.0000	379.429
744.0000	379.853
745.0000	381.684
746.0000	382.028
747.0000	385.687
748.0000	384.438
749.0000	377.327
750.0000	378.036
751.0000	382.99
752.0000	385.971
753.0000	382.658
754.0000	383.146
755.0000	385.294
756.0000	384.983
757.0000	385.803
758.0000	383.678
759.0000	382.559
760.0000	382.421
761.0000	382.411
762.0000	383.985
763.0000	386.183
764.0000	383.542
765.0000	382.118
766.0000	384.201
767.0000	386.303
768.0000	388.257
769.0000	385.731
770.0000	385.912
771.0000	387.573
772.0000	385.611
773.0000	386.422
774.0000	384.794
775.0000	383.27
776.0000	386.196
777.0000	387.425
778.0000	386.626
779.0000	386.061
780.0000	387.417
781.0000	390.392
782.0000	390.369
783.0000	387.034
784.0000	386.335
785.0000	385.885
786.0000	383.237
787.0000	384.518
788.0000	386.554
789.0000	388.355
790.0000	387.971
791.0000	384.257
792.0000	383.203
793.0000	385.609
794.0000	386.995
795.0000	385.373
796.0000	387.623
797.0000	389.008
798.0000	389.754
799.0000	393.983
800.0000	391.936
801.0000	386.846
802.0000	385.258
803.0000	387.533
804.0000	388.562
805.0000	389.616
806.0000	392.175
807.0000	392.523
808.0000	391.941
809.0000	390.992
810.0000	388.541
811.0000	389.014
812.0000	391.971
813.0000	391.173
814.0000	389.084
815.0000	391.592
816.0000	396.548
817.0000	394.541
818.0000	393.259
819.0000	395.458
820.0000	393.02
821.0000	391.985
822.0000	393.599
823.0000	393.66
824.0000	392.63
825.0000	393.66
826.0000	395.232
827.0000	392.538
828.0000	388.21
829.0000	389.895
830.0000	392.688
831.0000	393.288
832.0000	396.067
833.0000	395.634
834.0000	392.795
835.0000	391.934
836.0000	394.025
837.0000	394.633
838.0000	392.818
839.0000	394.2
840.0000	396.018
841.0000	394.161
842.0000	396.416
843.0000	399.23
844.0000	398.174
845.0000	397.57
846.0000	396.783
847.0000	395.413
848.0000	395.471
849.0000	394.764
850.0000	396.656
851.0000	398.304
852.0000	399.406
853.0000	399.806
854.0000	397.967
855.0000	396.828
856.0000	395.997
857.0000	398.422
858.0000	399.64
859.0000	397.942
860.0000	396.526
861.0000	397.121
862.0000	394.894
863.0000	395.798
864.0000	400.92
865.0000	400.224
866.0000	395.631
867.0000	395.604
868.0000	398.406
869.0000	397.507
870.0000	399.95
871.0000	400.064
872.0000	401.724
873.0000	405.348
874.0000	399.049
875.0000	396.123
876.0000	399.068
877.0000	401.336
878.0000	398.427
879.0000	395.16
880.0000	397.681
881.0000	399.639
882.0000	399.851
883.0000	400.478
884.0000	400.05
885.0000	399.293
886.0000	395.519
887.0000	396.907
888.0000	402.056
889.0000	400.188
890.0000	401.228
891.0000	406.117
892.0000	405.344
893.0000	403.152
894.0000	403.601
895.0000	402.814
896.0000	403.472
897.0000	403.141
898.0000	401.587
899.0000	404.38
900.0000	405.99
901.0000	401.114
902.0000	398.162
903.0000	403.093
904.0000	404.333
905.0000	403.214
906.0000	402.826
907.0000	402.257
908.0000	402.322
909.0000	401.45
910.0000	402.64
911.0000	401.479
912.0000	399.999
913.0000	401.308
914.0000	405.144
915.0000	407.529
916.0000	407.154
917.0000	405.658
918.0000	406.854
919.0000	410.349
920.0000	407.826
921.0000	406.076
922.0000	409.129
923.0000	409.232
924.0000	407.802
925.0000	407.233
926.0000	405.617
927.0000	405.851
928.0000	407.798
929.0000	407.951
930.0000	407.487
931.0000	409.562
932.0000	408.71
933.0000	405.332
934.0000	405.96
935.0000	406.022
936.0000	402.922
937.0000	403.611
938.0000	406.991
939.0000	406.306
940.0000	406.04
941.0000	406.726
942.0000	405.989
943.0000	408.832
944.0000	409.131
945.0000	406.9
946.0000	407.334
947.0000	409.147
948.0000	409.56
949.0000	409.131
950.0000	409.352
951.0000	408.467
952.0000	409.066
953.0000	409.609
954.0000	413.367
955.0000	413.125
956.0000	406.917
957.0000	406.326
958.0000	408.584
959.0000	408.63
960.0000	408.034
961.0000	410.884
962.0000	409.132
963.0000	406.25
964.0000	407.653
965.0000	412.07
966.0000	413.119
967.0000	411.603
968.0000	410.194
969.0000	409.89
970.0000	410.427
971.0000	409.486
972.0000	410.989
973.0000	412.98
974.0000	414.703
975.0000	413.403
976.0000	411.693
977.0000	410.413
978.0000	412.103
979.0000	413.404
980.0000	414.131
981.0000	414.144
982.0000	410.883
983.0000	408.987
984.0000	411.637
985.0000	413.425
986.0000	413.203
987.0000	413.609
988.0000	412.96
989.0000	410.014
990.0000	410.822
991.0000	413.436
992.0000	413.388
993.0000	416.02
994.0000	416.773
995.0000	414.812
996.0000	413.309
997.0000	415.939
998.0000	414.74
999.0000	412.496
1000.0000	415.754
1001.0000	414.903
1002.0000	414.176
1003.0000	416.291
1004.0000	416.967
1005.0000	415.863
1006.0000	417.42
1007.0000	420.965
1008.0000	419.422
1009.0000	416.177
1010.0000	415.66
1011.0000	417.725
1012.0000	415.911
1013.0000	411.788
1014.0000	414.428
1015.0000	415.801
1016.0000	415.237
1017.0000	417.629
1018.0000	420.454
1019.0000	419.855
1020.0000	415.888
1021.0000	415.617
1022.0000	417.737
1023.0000	420.605
1024.0000	420.405
1025.0000	420.452
1026.0000	420.233
1027.0000	419.062
1028.0000	420.577
1029.0000	417.981
1030.0000	415.911
1031.0000	416.677
1032.0000	420.133
1033.0000	421.277
1034.0000	420.928
1035.0000	421.454
1036.0000	419.16
1037.0000	416.987
1038.0000	416.371
1039.0000	420.348
1040.0000	420.593
1041.0000	417.723
1042.0000	421.377
1043.0000	423.087
1044.0000	422.653
1045.0000	422.587
1046.0000	420.078
1047.0000	417.331
1048.0000	419.508
1049.0000	422.98
1050.0000	419.449
1051.0000	419.003
1052.0000	422.026
1053.0000	421.882
1054.0000	420.11
1055.0000	417.616
1056.0000	420.51
1057.0000	421.258
1058.0000	422.78
1059.0000	425.104
1060.0000	418.76
1061.0000	416.847
1062.0000	421.605
1063.0000	422.889
1064.0000	422.802
1065.0000	423.926
1066.0000	421.574
1067.0000	422.9
1068.0000	423.641
1069.0000	423.986
1070.0000	427.346
1071.0000	426.973
1072.0000	426.568
1073.0000	425.883
1074.0000	422.949
1075.0000	422.112
1076.0000	424.599
1077.0000	422.49
1078.0000	422.62
1079.0000	426.098
1080.0000	424.692
1081.0000	425.198
1082.0000	423.755
1083.0000	423.875
1084.0000	426.526
1085.0000	424.926
1086.0000	424.262
1087.0000	423.947
1088.0000	425.003
1089.0000	424.966
1090.0000	422.503
1091.0000	426.647
1092.0000	429.615
1093.0000	427.84
1094.0000	426.69
1095.0000	425.625
1096.0000	420.948
1097.0000	422.314
1098.0000	427.308
1099.0000	424.788
1100.0000	424.99
1101.0000	429.263
1102.0000	432.18
1103.0000	428.789
