TITLE	
DATA TYPE	
ORIGIN	JASCO
OWNER	
DATE	22/08/25
TIME	16:50:44
SPECTROMETER/DATA SYSTEM	
RESOLUTION	
DELTAX	0.5
XUNITS	SEC
YUNITS	INTENSITY
FIRSTX	0.0000
LASTX	1741.0000
NPOINTS	3483
FIRSTY	496.22705
MAXY	496.22705
MINY	-59.09412
XYDATA
0.0000	496.227
0.5000	496.134
1.0000	496.076
1.5000	496.016
2.0000	495.976
2.5000	495.909
3.0000	495.851
3.5000	495.795
4.0000	495.785
4.5000	495.727
5.0000	495.629
5.5000	495.612
6.0000	495.5
6.5000	495.479
7.0000	495.466
7.5000	495.39
8.0000	495.363
8.5000	495.312
9.0000	495.246
9.5000	495.217
10.0000	495.106
10.5000	495.131
11.0000	495.136
11.5000	495.041
12.0000	495.042
12.5000	495.017
13.0000	494.911
13.5000	494.895
14.0000	494.866
14.5000	494.691
15.0000	494.66
15.5000	494.626
16.0000	494.58
16.5000	494.56
17.0000	494.526
17.5000	494.49
18.0000	494.449
18.5000	494.42
19.0000	494.395
19.5000	494.354
20.0000	494.282
20.5000	494.252
21.0000	494.137
21.5000	494.162
22.0000	494.141
22.5000	494.083
23.0000	494.084
23.5000	493.941
24.0000	493.878
24.5000	493.938
25.0000	493.945
25.5000	493.908
26.0000	493.928
26.5000	493.805
27.0000	493.699
27.5000	493.694
28.0000	493.634
28.5000	493.546
29.0000	493.535
29.5000	493.471
30.0000	493.362
30.5000	493.379
31.0000	484.158
31.5000	467.018
32.0000	425.547
32.5000	90.5628
33.0000	-59.0941
33.5000	-37.7583
34.0000	-33.0243
34.5000	-31.34
35.0000	-30.2185
35.5000	-29.5939
36.0000	-29.1334
36.5000	-28.5445
37.0000	-28.248
37.5000	-28
38.0000	-27.6895
38.5000	-27.6719
39.0000	-27.5248
39.5000	38.0606
40.0000	302.441
40.5000	294.621
41.0000	292.168
41.5000	287.692
42.0000	271.829
42.5000	272.057
43.0000	272.114
43.5000	272.257
44.0000	272.484
44.5000	272.743
45.0000	273.059
45.5000	273.335
46.0000	273.594
46.5000	273.862
47.0000	274.106
47.5000	274.382
48.0000	274.664
48.5000	274.95
49.0000	275.215
49.5000	275.461
50.0000	275.793
50.5000	276.032
51.0000	276.31
51.5000	276.638
52.0000	276.885
52.5000	277.199
53.0000	277.478
53.5000	277.734
54.0000	277.981
54.5000	278.248
55.0000	278.521
55.5000	278.798
56.0000	279.092
56.5000	279.355
57.0000	279.657
57.5000	279.955
58.0000	280.222
58.5000	280.512
59.0000	280.778
59.5000	280.971
60.0000	281.211
60.5000	281.471
61.0000	281.709
61.5000	282.031
62.0000	282.321
62.5000	282.598
63.0000	282.863
63.5000	283.107
64.0000	283.406
64.5000	283.671
65.0000	283.93
65.5000	284.188
66.0000	284.439
66.5000	284.682
67.0000	284.958
67.5000	285.247
68.0000	285.437
68.5000	285.733
69.0000	285.983
69.5000	286.211
70.0000	286.568
70.5000	286.833
71.0000	287.115
71.5000	287.417
72.0000	287.644
72.5000	287.925
73.0000	288.193
73.5000	288.418
74.0000	288.666
74.5000	288.88
75.0000	289.12
75.5000	289.397
76.0000	289.617
76.5000	289.908
77.0000	290.22
77.5000	290.485
78.0000	290.807
78.5000	291.003
79.0000	291.233
79.5000	291.48
80.0000	291.666
80.5000	291.925
81.0000	292.176
81.5000	292.439
82.0000	292.738
82.5000	293.046
83.0000	293.32
83.5000	293.56
84.0000	293.8
84.5000	294.063
85.0000	294.256
85.5000	294.542
86.0000	294.795
86.5000	295.013
87.0000	295.322
87.5000	295.564
88.0000	295.826
88.5000	296.104
89.0000	296.288
89.5000	296.527
90.0000	296.794
90.5000	296.979
91.0000	297.287
91.5000	297.56
92.0000	297.798
92.5000	298.053
93.0000	298.321
93.5000	298.6
94.0000	298.849
94.5000	299.16
95.0000	299.369
95.5000	299.573
96.0000	299.824
96.5000	300.034
97.0000	300.307
97.5000	300.566
98.0000	300.848
98.5000	301.115
99.0000	301.371
99.5000	301.593
100.0000	301.802
100.5000	302.054
101.0000	302.249
101.5000	302.491
102.0000	302.774
102.5000	302.986
103.0000	303.229
103.5000	303.478
104.0000	303.7
104.5000	303.948
105.0000	304.25
105.5000	304.53
106.0000	304.785
106.5000	305.034
107.0000	305.296
107.5000	305.573
108.0000	305.805
108.5000	306.048
109.0000	306.237
109.5000	306.39
110.0000	306.599
110.5000	306.811
111.0000	307.048
111.5000	307.328
112.0000	307.56
112.5000	307.782
113.0000	308.016
113.5000	308.205
114.0000	308.429
114.5000	308.656
115.0000	308.83
115.5000	309.098
116.0000	309.357
116.5000	309.652
117.0000	309.928
117.5000	310.154
118.0000	310.387
118.5000	310.593
119.0000	310.846
119.5000	311.076
120.0000	311.302
120.5000	311.489
121.0000	311.699
121.5000	311.943
122.0000	312.168
122.5000	312.51
123.0000	312.76
123.5000	312.99
124.0000	313.218
124.5000	313.396
125.0000	313.65
125.5000	313.866
126.0000	314.076
126.5000	314.286
127.0000	314.528
127.5000	314.762
128.0000	315.003
128.5000	315.198
129.0000	315.468
129.5000	315.685
130.0000	315.921
130.5000	316.187
131.0000	316.328
131.5000	316.568
132.0000	316.76
132.5000	317.026
133.0000	317.281
133.5000	317.515
134.0000	317.793
134.5000	318.006
135.0000	318.174
135.5000	318.358
136.0000	318.575
136.5000	318.793
137.0000	319.049
137.5000	319.244
138.0000	319.47
138.5000	319.685
139.0000	319.913
139.5000	320.172
140.0000	320.366
140.5000	320.611
141.0000	320.814
141.5000	321.049
142.0000	321.233
142.5000	321.401
143.0000	321.615
143.5000	321.816
144.0000	322.084
144.5000	322.272
145.0000	322.472
145.5000	322.677
146.0000	322.877
146.5000	323.085
147.0000	323.31
147.5000	323.52
148.0000	323.74
148.5000	323.981
149.0000	324.184
149.5000	324.347
150.0000	324.578
150.5000	324.8
151.0000	325.025
151.5000	325.287
152.0000	325.446
152.5000	325.635
153.0000	325.857
153.5000	326.081
154.0000	326.297
154.5000	326.525
155.0000	326.669
155.5000	326.81
156.0000	327.023
156.5000	327.232
157.0000	327.443
157.5000	327.67
158.0000	327.888
158.5000	328.115
159.0000	328.323
159.5000	328.564
160.0000	328.741
160.5000	328.866
161.0000	329.106
161.5000	329.346
162.0000	329.544
162.5000	329.758
163.0000	329.932
163.5000	330.068
164.0000	330.324
164.5000	330.568
165.0000	330.752
165.5000	330.957
166.0000	331.142
166.5000	331.328
167.0000	331.514
167.5000	331.718
168.0000	331.888
168.5000	332.121
169.0000	332.354
169.5000	332.543
170.0000	332.74
170.5000	332.938
171.0000	333.14
171.5000	333.336
172.0000	333.53
172.5000	333.726
173.0000	333.893
173.5000	334.107
174.0000	334.328
174.5000	334.468
175.0000	334.67
175.5000	334.837
176.0000	335.023
176.5000	335.208
177.0000	335.456
177.5000	335.668
178.0000	335.866
178.5000	336.098
179.0000	336.256
179.5000	336.469
180.0000	336.679
180.5000	336.884
181.0000	337.067
181.5000	337.25
182.0000	337.426
182.5000	337.559
183.0000	337.837
183.5000	338.06
184.0000	338.26
184.5000	338.532
185.0000	338.697
185.5000	338.832
186.0000	339.01
186.5000	339.189
187.0000	339.356
187.5000	339.575
188.0000	339.737
188.5000	339.891
189.0000	340.123
189.5000	340.289
190.0000	340.508
190.5000	340.763
191.0000	340.907
191.5000	341.137
192.0000	341.373
192.5000	341.541
193.0000	341.732
193.5000	341.906
194.0000	342.065
194.5000	342.263
195.0000	342.478
195.5000	342.767
196.0000	342.989
196.5000	343.191
197.0000	343.395
197.5000	343.517
198.0000	343.728
198.5000	343.922
199.0000	344.126
199.5000	344.348
200.0000	344.523
200.5000	344.723
201.0000	344.883
201.5000	345.075
202.0000	345.314
202.5000	345.469
203.0000	345.694
203.5000	345.838
204.0000	345.962
204.5000	346.155
205.0000	346.392
205.5000	346.606
206.0000	346.765
206.5000	346.976
207.0000	347.095
207.5000	347.276
208.0000	347.512
208.5000	347.745
209.0000	347.869
209.5000	348.039
210.0000	348.203
210.5000	348.321
211.0000	348.565
211.5000	348.816
212.0000	349.017
212.5000	349.245
213.0000	349.399
213.5000	349.535
214.0000	349.726
214.5000	349.837
215.0000	349.953
215.5000	350.139
216.0000	350.26
216.5000	350.429
217.0000	350.674
217.5000	350.846
218.0000	351.051
218.5000	351.268
219.0000	351.477
219.5000	351.689
220.0000	351.869
220.5000	352.051
221.0000	352.252
221.5000	352.316
222.0000	352.498
222.5000	352.664
223.0000	352.82
223.5000	353.087
224.0000	353.254
224.5000	353.432
225.0000	353.578
225.5000	353.694
226.0000	353.887
226.5000	354.046
227.0000	354.212
227.5000	354.388
228.0000	354.583
228.5000	354.816
229.0000	354.997
229.5000	355.198
230.0000	355.293
230.5000	355.394
231.0000	355.589
231.5000	355.794
232.0000	356.006
232.5000	356.195
233.0000	356.366
233.5000	356.488
234.0000	356.637
234.5000	356.812
235.0000	356.957
235.5000	357.138
236.0000	357.307
236.5000	357.424
237.0000	357.591
237.5000	357.734
238.0000	357.909
238.5000	358.097
239.0000	358.248
239.5000	358.465
240.0000	358.629
240.5000	358.839
241.0000	359.019
241.5000	359.125
242.0000	359.285
242.5000	359.415
243.0000	359.587
243.5000	359.738
244.0000	359.962
244.5000	360.163
245.0000	360.337
245.5000	360.524
246.0000	360.62
246.5000	360.748
247.0000	360.952
247.5000	361.122
248.0000	361.291
248.5000	361.461
249.0000	361.51
249.5000	361.711
250.0000	361.894
250.5000	362.038
251.0000	362.247
251.5000	362.389
252.0000	362.517
252.5000	362.675
253.0000	362.858
253.5000	363.006
254.0000	363.228
254.5000	363.448
255.0000	363.6
255.5000	363.756
256.0000	363.845
256.5000	363.985
257.0000	364.114
257.5000	364.273
258.0000	364.452
258.5000	364.585
259.0000	364.78
259.5000	364.991
260.0000	365.167
260.5000	365.304
261.0000	365.42
261.5000	365.541
262.0000	365.654
262.5000	365.892
263.0000	366.059
263.5000	366.215
264.0000	366.413
264.5000	366.509
265.0000	366.648
265.5000	366.798
266.0000	366.918
266.5000	367.081
267.0000	367.266
267.5000	367.422
268.0000	367.584
268.5000	367.735
269.0000	367.851
269.5000	367.951
270.0000	368.148
270.5000	368.29
271.0000	368.44
271.5000	368.605
272.0000	368.75
272.5000	368.896
273.0000	369.071
273.5000	369.243
274.0000	369.426
274.5000	369.593
275.0000	369.754
275.5000	369.885
276.0000	369.974
276.5000	370.145
277.0000	370.295
277.5000	370.462
278.0000	370.615
278.5000	370.726
279.0000	370.892
279.5000	371.037
280.0000	371.209
280.5000	371.345
281.0000	371.442
281.5000	371.635
282.0000	371.748
282.5000	371.906
283.0000	372.124
283.5000	372.228
284.0000	372.352
284.5000	372.508
285.0000	372.643
285.5000	372.809
286.0000	372.972
286.5000	373.087
287.0000	373.222
287.5000	373.366
288.0000	373.505
288.5000	373.688
289.0000	373.788
289.5000	373.926
290.0000	374.077
290.5000	374.148
291.0000	374.345
291.5000	374.457
292.0000	374.589
292.5000	374.793
293.0000	374.968
293.5000	375.192
294.0000	375.385
294.5000	375.542
295.0000	375.63
295.5000	375.727
296.0000	375.862
296.5000	375.967
297.0000	376.102
297.5000	376.227
298.0000	376.361
298.5000	376.58
299.0000	376.733
299.5000	376.903
300.0000	377.075
300.5000	377.178
301.0000	377.339
301.5000	377.43
302.0000	377.486
302.5000	377.605
303.0000	377.725
303.5000	377.909
304.0000	378.117
304.5000	378.298
305.0000	378.44
305.5000	378.584
306.0000	378.72
306.5000	378.801
307.0000	378.947
307.5000	379.057
308.0000	379.129
308.5000	379.284
309.0000	379.39
309.5000	379.508
310.0000	379.699
310.5000	379.848
311.0000	380.051
311.5000	380.216
312.0000	380.338
312.5000	380.471
313.0000	380.547
313.5000	380.682
314.0000	380.76
314.5000	380.939
315.0000	381.096
315.5000	381.202
316.0000	381.414
316.5000	381.516
317.0000	381.597
317.5000	381.723
318.0000	381.876
318.5000	382.006
319.0000	382.135
319.5000	382.308
320.0000	382.422
320.5000	382.543
321.0000	382.714
321.5000	382.848
322.0000	382.978
322.5000	383.171
323.0000	383.298
323.5000	383.389
324.0000	383.516
324.5000	383.614
325.0000	383.721
325.5000	383.904
326.0000	384.051
326.5000	384.138
327.0000	384.328
327.5000	384.441
328.0000	384.574
328.5000	384.644
329.0000	384.759
329.5000	384.886
330.0000	384.99
330.5000	385.181
331.0000	385.312
331.5000	385.469
332.0000	385.641
332.5000	385.786
333.0000	385.891
333.5000	386.026
334.0000	386.109
334.5000	386.254
335.0000	386.363
335.5000	386.389
336.0000	386.526
336.5000	386.671
337.0000	386.815
337.5000	387.022
338.0000	387.209
338.5000	387.298
339.0000	387.43
339.5000	387.573
340.0000	387.606
340.5000	387.728
341.0000	387.86
341.5000	387.947
342.0000	388.153
342.5000	388.291
343.0000	388.435
343.5000	388.647
344.0000	388.725
344.5000	388.828
345.0000	388.945
345.5000	389.024
346.0000	389.173
346.5000	389.313
347.0000	389.477
347.5000	389.544
348.0000	389.647
348.5000	389.791
349.0000	389.852
349.5000	390.001
350.0000	390.142
350.5000	390.193
351.0000	390.369
351.5000	390.498
352.0000	390.572
352.5000	390.762
353.0000	390.903
353.5000	391.041
354.0000	391.17
354.5000	391.318
355.0000	391.398
355.5000	391.461
356.0000	391.596
356.5000	391.71
357.0000	391.797
357.5000	391.93
358.0000	392.068
358.5000	392.144
359.0000	392.266
359.5000	392.399
360.0000	392.451
360.5000	392.558
361.0000	392.639
361.5000	392.754
362.0000	392.874
362.5000	393.013
363.0000	393.137
363.5000	393.287
364.0000	393.424
364.5000	393.55
365.0000	393.744
365.5000	393.819
366.0000	393.907
366.5000	394.035
367.0000	394.12
367.5000	394.265
368.0000	394.406
368.5000	394.526
369.0000	394.553
369.5000	394.614
370.0000	394.73
370.5000	394.757
371.0000	394.972
371.5000	395.148
372.0000	395.287
372.5000	395.447
373.0000	395.495
373.5000	395.558
374.0000	395.735
374.5000	395.786
375.0000	396.036
375.5000	396.167
376.0000	396.221
376.5000	396.456
377.0000	396.462
377.5000	396.556
378.0000	396.644
378.5000	396.697
379.0000	396.794
379.5000	396.935
380.0000	397.109
380.5000	397.235
381.0000	397.403
381.5000	397.571
382.0000	397.651
382.5000	397.781
383.0000	397.896
383.5000	397.98
384.0000	398.163
384.5000	398.298
385.0000	398.401
385.5000	398.515
386.0000	398.609
386.5000	398.684
387.0000	398.815
387.5000	398.947
388.0000	399.034
388.5000	399.188
389.0000	399.298
389.5000	399.397
390.0000	399.425
390.5000	399.527
391.0000	399.663
391.5000	399.849
392.0000	400.039
392.5000	400.1
393.0000	400.144
393.5000	400.221
394.0000	400.337
394.5000	400.447
395.0000	400.628
395.5000	400.737
396.0000	400.831
396.5000	401.021
397.0000	401.128
397.5000	401.208
398.0000	401.371
398.5000	401.475
399.0000	401.617
399.5000	401.742
400.0000	401.812
400.5000	401.915
401.0000	401.927
401.5000	401.997
402.0000	402.069
402.5000	402.184
403.0000	402.355
403.5000	402.454
404.0000	402.632
404.5000	402.715
405.0000	402.801
405.5000	402.941
406.0000	403.037
406.5000	403.113
407.0000	403.183
407.5000	403.323
408.0000	403.353
408.5000	403.421
409.0000	403.584
409.5000	403.64
410.0000	403.817
410.5000	404.025
411.0000	404.161
411.5000	404.245
412.0000	404.352
412.5000	404.42
413.0000	404.451
413.5000	404.551
414.0000	404.597
414.5000	404.724
415.0000	404.875
415.5000	405.01
416.0000	405.188
416.5000	405.271
417.0000	405.323
417.5000	405.44
418.0000	405.526
418.5000	405.596
419.0000	405.779
419.5000	405.915
420.0000	406.048
420.5000	406.181
421.0000	406.24
421.5000	406.344
422.0000	406.499
422.5000	406.636
423.0000	406.708
423.5000	406.728
424.0000	406.761
424.5000	406.799
425.0000	406.935
425.5000	407.145
426.0000	407.199
426.5000	407.342
427.0000	407.441
427.5000	407.501
428.0000	407.632
428.5000	407.766
429.0000	407.848
429.5000	407.967
430.0000	408.051
430.5000	408.116
431.0000	408.272
431.5000	408.425
432.0000	408.559
432.5000	408.673
433.0000	408.719
433.5000	408.781
434.0000	408.924
434.5000	409.023
435.0000	409.122
435.5000	409.173
436.0000	409.225
436.5000	409.366
437.0000	409.458
437.5000	409.544
438.0000	409.64
438.5000	409.637
439.0000	409.807
439.5000	409.977
440.0000	410.078
440.5000	410.218
441.0000	410.299
441.5000	410.293
442.0000	410.418
442.5000	410.558
443.0000	410.65
443.5000	410.851
444.0000	410.998
444.5000	411.059
445.0000	411.129
445.5000	411.181
446.0000	411.239
446.5000	411.283
447.0000	411.454
447.5000	411.576
448.0000	411.638
448.5000	411.796
449.0000	411.839
449.5000	411.866
450.0000	411.936
450.5000	412.026
451.0000	412.152
451.5000	412.319
452.0000	412.433
452.5000	412.539
453.0000	412.578
453.5000	412.665
454.0000	412.74
454.5000	412.866
455.0000	412.952
455.5000	413.061
456.0000	413.207
456.5000	413.256
457.0000	413.391
457.5000	413.469
458.0000	413.612
458.5000	413.739
459.0000	413.875
459.5000	413.963
460.0000	413.945
460.5000	414.038
461.0000	414.147
461.5000	414.22
462.0000	414.34
462.5000	414.374
463.0000	414.397
463.5000	414.488
464.0000	414.614
464.5000	414.806
465.0000	414.899
465.5000	414.996
466.0000	415.098
466.5000	415.18
467.0000	415.245
467.5000	415.362
468.0000	415.463
468.5000	415.501
469.0000	415.666
469.5000	415.741
470.0000	415.79
470.5000	415.915
471.0000	416.014
471.5000	416.126
472.0000	416.335
472.5000	416.404
473.0000	416.455
473.5000	416.53
474.0000	416.578
474.5000	416.621
475.0000	416.729
475.5000	416.858
476.0000	416.898
476.5000	417.07
477.0000	417.142
477.5000	417.218
478.0000	417.32
478.5000	417.401
479.0000	417.52
479.5000	417.633
480.0000	417.745
480.5000	417.823
481.0000	417.874
481.5000	417.915
482.0000	417.967
482.5000	418.05
483.0000	418.154
483.5000	418.229
484.0000	418.345
484.5000	418.468
485.0000	418.537
485.5000	418.635
486.0000	418.665
486.5000	418.758
487.0000	418.871
487.5000	418.975
488.0000	419.07
488.5000	419.157
489.0000	419.296
489.5000	419.436
490.0000	419.584
490.5000	419.594
491.0000	419.545
491.5000	419.565
492.0000	419.633
492.5000	419.788
493.0000	419.956
493.5000	420.049
494.0000	420.161
494.5000	420.233
495.0000	420.256
495.5000	420.329
496.0000	420.44
496.5000	420.541
497.0000	420.665
497.5000	420.807
498.0000	420.879
498.5000	420.925
499.0000	421.027
499.5000	421.083
500.0000	421.175
500.5000	421.333
501.0000	421.481
501.5000	421.555
502.0000	421.66
502.5000	421.677
503.0000	421.704
503.5000	421.822
504.0000	421.848
504.5000	421.995
505.0000	422.123
505.5000	422.181
506.0000	422.245
506.5000	422.329
507.0000	422.378
507.5000	422.52
508.0000	422.624
508.5000	422.665
509.0000	422.731
509.5000	422.766
510.0000	422.832
510.5000	422.946
511.0000	423.027
511.5000	423.142
512.0000	423.227
512.5000	423.278
513.0000	423.458
513.5000	423.439
514.0000	423.537
514.5000	423.595
515.0000	423.606
515.5000	423.777
516.0000	423.864
516.5000	423.98
517.0000	424.058
517.5000	424.116
518.0000	424.256
518.5000	424.371
519.0000	424.42
519.5000	424.544
520.0000	424.594
520.5000	424.614
521.0000	424.787
521.5000	424.81
522.0000	424.899
522.5000	425.053
523.0000	425.074
523.5000	425.196
524.0000	425.228
524.5000	425.263
525.0000	425.365
525.5000	425.432
526.0000	425.539
526.5000	425.651
527.0000	425.759
527.5000	425.827
528.0000	425.951
528.5000	426.059
529.0000	426.149
529.5000	426.256
530.0000	426.294
530.5000	426.358
531.0000	426.436
531.5000	426.531
532.0000	426.633
532.5000	426.635
533.0000	426.733
533.5000	426.796
534.0000	426.838
534.5000	426.96
535.0000	427.037
535.5000	427.156
536.0000	427.213
536.5000	427.322
537.0000	427.388
537.5000	427.4
538.0000	427.566
538.5000	427.613
539.0000	427.698
539.5000	427.828
540.0000	427.888
540.5000	427.949
541.0000	427.997
541.5000	428.029
542.0000	428.08
542.5000	428.165
543.0000	428.254
543.5000	428.345
544.0000	428.468
544.5000	428.628
545.0000	428.668
545.5000	428.763
546.0000	428.888
546.5000	428.898
547.0000	429.004
547.5000	429.113
548.0000	429.162
548.5000	429.261
549.0000	429.344
549.5000	429.371
550.0000	429.48
550.5000	429.529
551.0000	429.625
551.5000	429.721
552.0000	429.746
552.5000	429.875
553.0000	429.936
553.5000	429.998
554.0000	430.058
554.5000	430.125
555.0000	430.252
555.5000	430.402
556.0000	430.48
556.5000	430.545
