TITLE	
DATA TYPE	
ORIGIN	JASCO
OWNER	
DATE	22/08/26
TIME	10:08:22
SPECTROMETER/DATA SYSTEM	
RESOLUTION	
DELTAX	0.5
XUNITS	SEC
YUNITS	INTENSITY
FIRSTX	0.0000
LASTX	976.5000
NPOINTS	1954
FIRSTY	480.60767
MAXY	499.88303
MINY	-105.70615
XYDATA
0.0000	480.608
0.5000	480.61
1.0000	480.592
1.5000	480.642
2.0000	480.547
2.5000	480.496
3.0000	480.454
3.5000	480.41
4.0000	480.387
4.5000	480.425
5.0000	480.429
5.5000	480.453
6.0000	480.568
6.5000	480.607
7.0000	480.656
7.5000	480.671
8.0000	480.568
8.5000	480.477
9.0000	480.44
9.5000	480.334
10.0000	480.307
10.5000	480.298
11.0000	480.287
11.5000	480.227
12.0000	480.184
12.5000	480.137
13.0000	480.054
13.5000	480.076
14.0000	480.112
14.5000	480.078
15.0000	480.065
15.5000	480.108
16.0000	480.021
16.5000	479.99
17.0000	479.966
17.5000	479.871
18.0000	479.893
18.5000	479.843
19.0000	479.822
19.5000	479.811
20.0000	479.777
20.5000	479.825
21.0000	479.861
21.5000	479.839
22.0000	479.856
22.5000	478.663
23.0000	465.995
23.5000	444.726
24.0000	379.265
24.5000	-105.706
25.0000	-46.6481
25.5000	-34.7744
26.0000	-31.7753
26.5000	-30.4051
27.0000	-29.56
27.5000	-29.1166
28.0000	-28.4881
28.5000	-28.173
29.0000	-27.8786
29.5000	-27.6462
30.0000	-27.502
30.5000	-27.3433
31.0000	-27.2477
31.5000	-27.0833
32.0000	-26.9467
32.5000	-26.7699
33.0000	-26.643
33.5000	-26.5326
34.0000	-26.3838
34.5000	-26.1453
35.0000	349.369
35.5000	316.012
36.0000	307.152
36.5000	303.119
37.0000	276.302
37.5000	276.949
38.0000	277.262
38.5000	277.605
39.0000	278.052
39.5000	278.509
40.0000	279.06
40.5000	279.569
41.0000	280.054
41.5000	280.612
42.0000	281.117
42.5000	281.685
43.0000	282.251
43.5000	282.78
44.0000	283.287
44.5000	283.729
45.0000	284.243
45.5000	284.703
46.0000	285.193
46.5000	285.765
47.0000	286.302
47.5000	286.846
48.0000	287.385
48.5000	287.896
49.0000	288.362
49.5000	288.85
50.0000	289.356
50.5000	289.856
51.0000	290.324
51.5000	290.836
52.0000	291.338
52.5000	291.827
53.0000	292.354
53.5000	292.856
54.0000	293.375
54.5000	293.899
55.0000	294.41
55.5000	294.96
56.0000	295.487
56.5000	295.979
57.0000	296.466
57.5000	296.936
58.0000	297.409
58.5000	297.902
59.0000	298.424
59.5000	298.98
60.0000	299.434
60.5000	299.917
61.0000	300.397
61.5000	300.841
62.0000	301.358
62.5000	301.903
63.0000	302.412
63.5000	302.877
64.0000	303.385
64.5000	303.869
65.0000	304.363
65.5000	304.876
66.0000	305.352
66.5000	305.815
67.0000	306.245
67.5000	306.737
68.0000	307.227
68.5000	307.746
69.0000	308.303
69.5000	308.806
70.0000	309.295
70.5000	309.777
71.0000	310.205
71.5000	310.664
72.0000	311.132
72.5000	311.586
73.0000	312.069
73.5000	312.57
74.0000	313.049
74.5000	313.484
75.0000	313.986
75.5000	314.42
76.0000	314.876
76.5000	315.423
77.0000	315.897
77.5000	316.396
78.0000	316.868
78.5000	317.307
79.0000	317.705
79.5000	318.15
80.0000	318.613
80.5000	319.037
81.0000	319.548
81.5000	319.971
82.0000	320.421
82.5000	320.859
83.0000	321.316
83.5000	321.77
84.0000	322.176
84.5000	322.66
85.0000	323.052
85.5000	323.494
86.0000	323.999
86.5000	324.455
87.0000	324.926
87.5000	325.37
88.0000	325.795
88.5000	326.218
89.0000	326.657
89.5000	327.092
90.0000	327.53
90.5000	327.942
91.0000	328.357
91.5000	328.806
92.0000	329.255
92.5000	329.675
93.0000	330.13
93.5000	330.556
94.0000	330.949
94.5000	331.373
95.0000	331.837
95.5000	332.273
96.0000	332.687
96.5000	333.143
97.0000	333.518
97.5000	333.953
98.0000	334.39
98.5000	334.793
99.0000	335.204
99.5000	335.594
100.0000	336.002
100.5000	336.427
101.0000	336.874
101.5000	337.349
102.0000	337.798
102.5000	338.218
103.0000	338.642
103.5000	339.027
104.0000	339.44
104.5000	339.839
105.0000	340.253
105.5000	340.668
106.0000	341.063
106.5000	341.461
107.0000	341.847
107.5000	342.223
108.0000	342.66
108.5000	343.134
109.0000	343.592
109.5000	344.04
110.0000	344.467
110.5000	344.884
111.0000	345.324
111.5000	345.733
112.0000	346.147
112.5000	346.561
113.0000	346.87
113.5000	347.293
114.0000	347.735
114.5000	348.134
115.0000	348.606
115.5000	349.005
116.0000	349.372
116.5000	349.758
117.0000	350.132
117.5000	350.53
118.0000	350.936
118.5000	351.388
119.0000	351.813
119.5000	352.281
120.0000	352.736
120.5000	353.061
121.0000	353.482
121.5000	353.892
122.0000	354.241
122.5000	354.634
123.0000	355.029
123.5000	355.393
124.0000	355.83
124.5000	356.354
125.0000	356.735
125.5000	357.114
126.0000	357.524
126.5000	357.883
127.0000	358.27
127.5000	358.686
128.0000	359.076
128.5000	359.463
129.0000	359.93
129.5000	360.332
130.0000	360.669
130.5000	361.038
131.0000	361.421
131.5000	361.789
132.0000	362.214
132.5000	362.643
133.0000	363
133.5000	363.356
134.0000	363.701
134.5000	364.089
135.0000	364.546
135.5000	365.037
136.0000	365.475
136.5000	365.803
137.0000	366.117
137.5000	366.403
138.0000	366.699
138.5000	367.106
139.0000	367.454
139.5000	367.872
140.0000	368.303
140.5000	368.665
141.0000	369.081
141.5000	369.414
142.0000	369.783
142.5000	370.16
143.0000	370.534
143.5000	370.9
144.0000	371.26
144.5000	371.627
145.0000	371.932
145.5000	372.358
146.0000	372.717
146.5000	373.059
147.0000	373.469
147.5000	373.823
148.0000	374.253
148.5000	374.608
149.0000	374.965
149.5000	375.301
150.0000	375.573
150.5000	375.917
151.0000	376.291
151.5000	376.676
152.0000	377.087
152.5000	377.493
153.0000	377.844
153.5000	378.193
154.0000	378.519
154.5000	378.845
155.0000	379.226
155.5000	379.587
156.0000	379.981
156.5000	380.316
157.0000	380.604
157.5000	380.929
158.0000	381.205
158.5000	381.607
159.0000	381.914
159.5000	382.179
160.0000	382.476
160.5000	382.757
161.0000	383.09
161.5000	383.458
162.0000	383.919
162.5000	384.254
163.0000	384.606
163.5000	384.945
164.0000	385.24
164.5000	385.614
165.0000	385.943
165.5000	386.295
166.0000	386.625
166.5000	386.88
167.0000	387.222
167.5000	387.543
168.0000	387.847
168.5000	388.207
169.0000	388.525
169.5000	388.826
170.0000	389.135
170.5000	389.422
171.0000	389.78
171.5000	390.126
172.0000	390.453
172.5000	390.812
173.0000	391.146
173.5000	391.446
174.0000	391.772
174.5000	392.098
175.0000	392.381
175.5000	392.702
176.0000	392.977
176.5000	393.271
177.0000	393.548
177.5000	393.87
178.0000	394.215
178.5000	394.542
179.0000	394.855
179.5000	395.232
180.0000	395.552
180.5000	395.856
181.0000	396.191
181.5000	396.4
182.0000	396.67
182.5000	396.986
183.0000	397.234
183.5000	397.538
184.0000	397.901
184.5000	398.192
185.0000	398.549
185.5000	398.886
186.0000	399.141
186.5000	399.428
187.0000	399.737
187.5000	400.036
188.0000	400.33
188.5000	400.666
189.0000	400.957
189.5000	401.275
190.0000	401.589
190.5000	401.857
191.0000	402.119
191.5000	402.381
192.0000	402.714
192.5000	403.037
193.0000	403.335
193.5000	403.633
194.0000	403.864
194.5000	404.138
195.0000	404.346
195.5000	404.576
196.0000	404.855
196.5000	405.148
197.0000	405.504
197.5000	405.776
198.0000	406.078
198.5000	406.314
199.0000	406.572
199.5000	406.899
200.0000	407.149
200.5000	407.452
201.0000	407.725
201.5000	407.911
202.0000	408.203
202.5000	408.449
203.0000	408.742
203.5000	409.127
204.0000	409.366
204.5000	409.608
205.0000	409.865
205.5000	410.077
206.0000	410.345
206.5000	410.643
207.0000	410.959
207.5000	411.278
208.0000	411.59
208.5000	411.887
209.0000	412.139
209.5000	412.355
210.0000	412.586
210.5000	412.787
211.0000	413.06
211.5000	413.385
212.0000	413.604
212.5000	413.903
213.0000	414.139
213.5000	414.351
214.0000	414.665
214.5000	414.877
215.0000	415.134
215.5000	415.366
216.0000	415.644
216.5000	415.908
217.0000	416.119
217.5000	416.389
218.0000	416.605
218.5000	416.886
219.0000	417.172
219.5000	417.39
220.0000	417.646
220.5000	417.919
221.0000	418.202
221.5000	418.56
222.0000	418.765
222.5000	419.027
223.0000	419.271
223.5000	419.395
224.0000	419.731
224.5000	419.958
225.0000	420.152
225.5000	420.497
226.0000	420.739
226.5000	420.98
227.0000	421.264
227.5000	421.478
228.0000	421.707
228.5000	421.933
229.0000	422.18
229.5000	422.462
230.0000	422.669
230.5000	422.878
231.0000	423.064
231.5000	423.279
232.0000	423.486
232.5000	423.747
233.0000	424.093
233.5000	424.249
234.0000	424.502
234.5000	424.774
235.0000	424.931
235.5000	425.19
236.0000	425.402
236.5000	425.571
237.0000	425.787
237.5000	425.898
238.0000	426.128
238.5000	426.38
239.0000	426.618
239.5000	426.944
240.0000	427.114
240.5000	427.318
241.0000	427.562
241.5000	427.764
242.0000	428.022
242.5000	428.225
243.0000	428.342
243.5000	428.606
244.0000	428.801
244.5000	429.058
245.0000	429.449
245.5000	429.675
246.0000	429.937
246.5000	430.096
247.0000	430.14
247.5000	430.237
248.0000	430.422
248.5000	430.697
249.0000	430.938
249.5000	431.144
250.0000	431.356
250.5000	431.517
251.0000	431.725
251.5000	431.989
252.0000	432.214
252.5000	432.444
253.0000	432.701
253.5000	432.904
254.0000	433.083
254.5000	433.242
255.0000	433.436
255.5000	433.659
256.0000	433.888
256.5000	434.094
257.0000	434.288
257.5000	434.492
258.0000	434.661
258.5000	434.878
259.0000	435.094
259.5000	435.283
260.0000	435.519
260.5000	435.754
261.0000	435.895
261.5000	436.119
262.0000	436.255
262.5000	436.397
263.0000	436.654
263.5000	436.788
264.0000	437.065
264.5000	437.294
265.0000	437.42
265.5000	437.651
266.0000	437.788
266.5000	437.944
267.0000	438.139
267.5000	438.387
268.0000	438.621
268.5000	438.906
269.0000	439.067
269.5000	439.177
270.0000	439.369
270.5000	439.488
271.0000	439.759
271.5000	439.959
272.0000	440.098
272.5000	440.261
273.0000	440.407
273.5000	440.645
274.0000	440.892
274.5000	441.106
275.0000	441.317
275.5000	441.457
276.0000	441.562
276.5000	441.748
277.0000	441.927
277.5000	442.107
278.0000	442.323
278.5000	442.495
279.0000	442.641
279.5000	442.856
280.0000	443.086
280.5000	443.202
281.0000	443.427
281.5000	443.517
282.0000	443.658
282.5000	443.919
283.0000	444.044
283.5000	444.272
284.0000	444.452
284.5000	444.569
285.0000	444.718
285.5000	444.878
286.0000	445.07
286.5000	445.268
287.0000	445.462
287.5000	445.733
288.0000	445.846
288.5000	446.045
289.0000	446.17
289.5000	446.226
290.0000	446.435
290.5000	446.524
291.0000	446.725
291.5000	446.883
292.0000	447.065
292.5000	447.286
293.0000	447.45
293.5000	447.6
294.0000	447.701
294.5000	447.802
295.0000	447.889
295.5000	448.102
296.0000	448.224
296.5000	448.422
297.0000	448.71
297.5000	448.826
298.0000	449.038
298.5000	449.232
299.0000	449.402
299.5000	449.547
300.0000	449.659
300.5000	449.73
301.0000	449.816
301.5000	450.015
302.0000	450.194
302.5000	450.378
303.0000	450.546
303.5000	450.692
304.0000	450.775
304.5000	450.88
305.0000	451.007
305.5000	451.14
306.0000	451.314
306.5000	451.513
307.0000	451.708
307.5000	451.871
308.0000	452.045
308.5000	452.205
309.0000	452.341
309.5000	452.502
310.0000	452.66
310.5000	452.833
311.0000	452.963
311.5000	453.111
312.0000	453.337
312.5000	453.453
313.0000	453.632
313.5000	453.755
314.0000	453.848
314.5000	453.996
315.0000	454.106
315.5000	454.23
316.0000	454.317
316.5000	454.411
317.0000	454.562
317.5000	454.683
318.0000	454.914
318.5000	455.091
319.0000	455.204
319.5000	455.389
320.0000	455.468
320.5000	455.625
321.0000	455.76
321.5000	455.88
322.0000	456.109
322.5000	456.245
323.0000	456.388
323.5000	456.564
324.0000	456.687
324.5000	456.845
325.0000	457.103
325.5000	457.205
326.0000	457.269
326.5000	457.412
327.0000	457.483
327.5000	457.669
328.0000	457.822
328.5000	457.93
329.0000	458.072
329.5000	458.162
330.0000	458.266
330.5000	458.414
331.0000	458.532
331.5000	458.697
332.0000	458.815
332.5000	458.927
333.0000	459.061
333.5000	459.165
334.0000	459.38
334.5000	459.494
335.0000	459.684
335.5000	459.8
336.0000	459.86
336.5000	459.958
337.0000	460.009
337.5000	460.152
338.0000	460.326
338.5000	460.467
339.0000	460.563
339.5000	460.719
340.0000	460.862
340.5000	460.993
341.0000	461.123
341.5000	461.245
342.0000	461.334
342.5000	461.449
343.0000	461.67
343.5000	461.829
344.0000	461.899
344.5000	462.095
345.0000	462.159
345.5000	462.261
346.0000	462.439
346.5000	462.518
347.0000	462.568
347.5000	462.697
348.0000	462.815
348.5000	462.906
349.0000	463.064
349.5000	463.132
350.0000	463.165
350.5000	463.307
351.0000	463.397
351.5000	463.566
352.0000	463.739
352.5000	463.868
353.0000	464.049
353.5000	464.124
354.0000	464.24
354.5000	464.331
355.0000	464.452
355.5000	464.585
356.0000	464.687
356.5000	464.863
357.0000	464.981
357.5000	465.07
358.0000	465.15
358.5000	465.185
359.0000	465.316
359.5000	465.416
360.0000	465.606
360.5000	465.862
361.0000	465.945
361.5000	466.085
362.0000	466.177
362.5000	466.191
363.0000	466.26
363.5000	466.394
364.0000	466.52
364.5000	466.739
365.0000	466.898
365.5000	467.034
366.0000	467.157
366.5000	467.178
367.0000	467.23
367.5000	467.285
368.0000	467.312
368.5000	467.353
369.0000	467.476
369.5000	467.582
370.0000	467.802
370.5000	467.988
371.0000	468.168
371.5000	468.279
372.0000	468.363
372.5000	468.439
373.0000	468.492
373.5000	468.597
374.0000	468.564
374.5000	468.678
375.0000	468.827
375.5000	468.91
376.0000	469.173
376.5000	469.287
377.0000	469.333
377.5000	469.478
378.0000	469.584
378.5000	469.634
379.0000	469.788
379.5000	469.798
380.0000	469.868
380.5000	470.038
381.0000	470.109
381.5000	470.269
382.0000	470.358
382.5000	470.387
383.0000	470.46
383.5000	470.524
384.0000	470.595
384.5000	470.702
385.0000	470.765
385.5000	470.865
386.0000	470.993
386.5000	471.095
387.0000	471.235
387.5000	471.365
388.0000	471.455
388.5000	471.563
389.0000	471.625
389.5000	471.706
390.0000	471.74
390.5000	471.864
391.0000	471.93
391.5000	472.054
392.0000	472.225
392.5000	472.27
393.0000	472.384
393.5000	472.448
394.0000	472.452
394.5000	472.547
395.0000	472.693
395.5000	472.834
396.0000	472.975
396.5000	473.019
397.0000	473.109
397.5000	473.159
398.0000	473.275
398.5000	473.41
399.0000	473.528
399.5000	473.614
400.0000	473.726
400.5000	473.866
401.0000	473.929
401.5000	474.023
402.0000	474.092
402.5000	474.124
403.0000	474.267
403.5000	474.42
404.0000	474.459
404.5000	474.529
405.0000	474.629
405.5000	474.667
406.0000	474.741
406.5000	474.792
407.0000	474.839
407.5000	474.884
408.0000	474.95
408.5000	475.165
409.0000	475.161
409.5000	475.311
410.0000	475.512
410.5000	475.573
411.0000	475.685
411.5000	475.789
412.0000	475.8
412.5000	475.931
413.0000	476.005
413.5000	476.03
414.0000	476.149
414.5000	476.191
415.0000	476.283
415.5000	476.38
416.0000	476.453
416.5000	476.434
417.0000	476.497
417.5000	476.55
418.0000	476.611
418.5000	476.747
419.0000	476.899
419.5000	476.991
420.0000	477.029
420.5000	477.144
421.0000	477.176
421.5000	477.245
422.0000	477.343
422.5000	477.425
423.0000	477.474
423.5000	477.62
424.0000	477.756
424.5000	477.832
425.0000	477.969
425.5000	478.015
426.0000	478.135
426.5000	478.21
427.0000	478.292
427.5000	478.375
428.0000	478.382
428.5000	478.455
429.0000	478.51
429.5000	478.549
430.0000	478.581
430.5000	478.655
431.0000	478.729
431.5000	478.773
432.0000	478.939
432.5000	479.041
433.0000	479.182
433.5000	479.314
434.0000	479.405
434.5000	479.439
435.0000	479.447
435.5000	479.501
436.0000	479.509
436.5000	479.558
437.0000	479.617
437.5000	479.687
438.0000	479.77
438.5000	479.824
439.0000	479.922
439.5000	479.994
440.0000	480.031
440.5000	480.107
441.0000	480.108
441.5000	480.156
442.0000	480.289
442.5000	480.362
443.0000	480.474
443.5000	480.555
444.0000	480.628
444.5000	480.651
445.0000	480.681
445.5000	480.779
446.0000	480.861
446.5000	480.964
447.0000	481.055
447.5000	481.068
448.0000	481.07
448.5000	481.185
449.0000	481.255
449.5000	481.345
450.0000	481.484
450.5000	481.488
451.0000	481.604
451.5000	481.647
452.0000	481.692
452.5000	481.847
453.0000	481.845
453.5000	481.933
454.0000	482.002
454.5000	482.029
455.0000	482.081
455.5000	482.122
456.0000	482.135
456.5000	482.235
457.0000	482.334
457.5000	482.39
458.0000	482.453
458.5000	482.458
459.0000	482.513
459.5000	482.495
460.0000	482.586
460.5000	482.662
461.0000	482.735
461.5000	482.857
462.0000	482.921
462.5000	482.991
463.0000	483.062
463.5000	483.172
464.0000	483.189
464.5000	483.237
465.0000	483.314
465.5000	483.307
466.0000	483.374
466.5000	483.432
467.0000	483.496
467.5000	483.612
468.0000	483.632
468.5000	483.683
469.0000	483.71
469.5000	483.761
470.0000	483.835
470.5000	483.893
471.0000	483.973
471.5000	484.073
472.0000	484.127
472.5000	484.237
473.0000	484.293
473.5000	484.316
474.0000	484.405
474.5000	484.391
475.0000	484.515
475.5000	484.578
476.0000	484.675
476.5000	484.764
477.0000	484.698
477.5000	484.684
478.0000	484.768
478.5000	484.877
479.0000	485.017
479.5000	485.151
480.0000	485.193
480.5000	485.178
481.0000	485.163
481.5000	485.264
482.0000	485.323
482.5000	485.399
483.0000	485.465
483.5000	485.43
484.0000	485.452
484.5000	485.505
485.0000	485.519
485.5000	485.624
486.0000	485.731
486.5000	485.82
487.0000	485.897
487.5000	486.004
488.0000	485.989
488.5000	486.073
489.0000	486.124
489.5000	486.151
490.0000	486.195
490.5000	486.199
491.0000	486.357
491.5000	486.434
492.0000	486.507
492.5000	486.594
493.0000	486.594
493.5000	486.641
494.0000	486.716
494.5000	486.8
495.0000	486.911
495.5000	486.91
496.0000	486.861
496.5000	486.83
497.0000	486.763
497.5000	486.832
498.0000	487.008
498.5000	487.017
499.0000	487.146
499.5000	487.31
500.0000	487.35
500.5000	487.433
501.0000	487.511
501.5000	487.5
502.0000	487.456
502.5000	487.53
503.0000	487.551
503.5000	487.519
504.0000	487.612
504.5000	487.63
505.0000	487.714
505.5000	487.744
506.0000	487.766
506.5000	487.781
507.0000	487.783
507.5000	487.919
508.0000	487.967
508.5000	488.089
509.0000	488.128
509.5000	488.057
510.0000	488.154
510.5000	488.172
511.0000	488.26
511.5000	488.37
512.0000	488.402
512.5000	488.452
513.0000	488.425
513.5000	488.468
514.0000	488.499
514.5000	488.516
515.0000	488.651
515.5000	488.706
516.0000	488.755
516.5000	488.863
517.0000	488.818
517.5000	488.883
518.0000	488.941
518.5000	488.966
519.0000	489.055
519.5000	489.056
520.0000	489.111
520.5000	489.201
521.0000	489.225
521.5000	489.328
522.0000	489.333
522.5000	489.325
523.0000	489.333
523.5000	489.394
524.0000	489.454
524.5000	489.488
525.0000	489.578
525.5000	489.539
526.0000	489.59
526.5000	489.605
527.0000	489.643
527.5000	489.716
528.0000	489.761
528.5000	489.879
529.0000	489.942
529.5000	489.981
530.0000	490.065
530.5000	490.024
531.0000	489.994
531.5000	490.055
532.0000	490.033
532.5000	490.167
533.0000	490.199
533.5000	490.252
534.0000	490.284
534.5000	490.255
535.0000	490.36
535.5000	490.401
536.0000	490.387
536.5000	490.424
537.0000	490.47
537.5000	490.502
538.0000	490.62
538.5000	490.669
539.0000	490.642
539.5000	490.695
540.0000	490.682
540.5000	490.738
541.0000	490.792
541.5000	490.826
542.0000	490.857
542.5000	490.856
543.0000	490.872
543.5000	490.81
544.0000	490.859
544.5000	490.943
545.0000	491.025
545.5000	491.159
546.0000	491.193
546.5000	491.169
547.0000	491.223
547.5000	491.239
548.0000	491.286
548.5000	491.31
549.0000	491.305
549.5000	491.24
550.0000	491.265
550.5000	491.338
551.0000	491.352
551.5000	491.477
552.0000	491.525
552.5000	491.556
553.0000	491.523
553.5000	491.577
554.0000	491.643
554.5000	491.619
555.0000	491.737
555.5000	491.692
556.0000	491.754
556.5000	491.835
