TITLE	
DATA TYPE	
ORIGIN	JASCO
OWNER	
DATE	22/04/19
TIME	15:38:09
SPECTROMETER/DATA SYSTEM	
RESOLUTION	
DELTAX	0.5
XUNITS	SEC
YUNITS	INTENSITY
FIRSTX	0.0000
LASTX	2883.5000
NPOINTS	5768
FIRSTY	511.68478
MAXY	511.70001
MINY	-126.69940
XYDATA
0.0000	511.685
0.5000	511.7
1.0000	511.686
1.5000	511.607
2.0000	511.649
2.5000	511.58
3.0000	511.505
3.5000	511.599
4.0000	511.559
4.5000	511.554
5.0000	511.606
5.5000	511.656
6.0000	511.562
6.5000	511.653
7.0000	511.603
7.5000	511.556
8.0000	511.643
8.5000	511.558
9.0000	511.639
9.5000	511.644
10.0000	511.533
10.5000	511.582
11.0000	511.483
11.5000	511.458
12.0000	511.5
12.5000	511.442
13.0000	511.586
13.5000	511.578
14.0000	511.68
14.5000	507.811
15.0000	490.13
15.5000	462.243
16.0000	384.447
16.5000	-126.699
17.0000	-50.5351
17.5000	-34.6186
18.0000	-30.951
18.5000	-29.254
19.0000	-28.3543
19.5000	-27.5499
20.0000	-27.099
20.5000	-26.8595
21.0000	-26.5339
21.5000	-26.4204
22.0000	-26.062
22.5000	180.868
23.0000	260.626
23.5000	257.707
24.0000	255.867
24.5000	244.016
25.0000	235.938
25.5000	235.296
26.0000	235.081
26.5000	234.927
27.0000	234.859
27.5000	234.868
28.0000	234.876
28.5000	234.911
29.0000	234.952
29.5000	234.893
30.0000	234.922
30.5000	234.964
31.0000	234.936
31.5000	235.01
32.0000	235.031
32.5000	235.009
33.0000	235.02
33.5000	235.011
34.0000	234.969
34.5000	234.965
35.0000	234.996
35.5000	235.024
36.0000	235.06
36.5000	235.093
37.0000	235.086
37.5000	235.083
38.0000	235.122
38.5000	235.132
39.0000	235.193
39.5000	235.182
40.0000	235.19
40.5000	235.208
41.0000	235.214
41.5000	235.262
42.0000	235.31
42.5000	235.314
43.0000	235.329
43.5000	235.391
44.0000	235.437
44.5000	235.412
45.0000	235.444
45.5000	235.43
46.0000	235.366
46.5000	235.437
47.0000	235.383
47.5000	235.38
48.0000	235.392
48.5000	235.413
49.0000	235.44
49.5000	235.42
50.0000	235.467
50.5000	235.461
51.0000	235.49
51.5000	235.505
52.0000	235.482
52.5000	235.491
53.0000	235.485
53.5000	235.507
54.0000	235.496
54.5000	235.501
55.0000	235.514
55.5000	235.495
56.0000	235.594
56.5000	235.574
57.0000	235.528
57.5000	235.545
58.0000	235.474
58.5000	235.524
59.0000	235.539
59.5000	235.499
60.0000	235.535
60.5000	235.466
61.0000	235.51
61.5000	235.554
62.0000	235.512
62.5000	235.562
63.0000	235.564
63.5000	235.576
64.0000	235.616
64.5000	235.64
65.0000	235.645
65.5000	235.679
66.0000	235.664
66.5000	235.676
67.0000	235.704
67.5000	235.673
68.0000	235.703
68.5000	235.703
69.0000	235.693
69.5000	235.762
70.0000	235.788
70.5000	235.806
71.0000	235.813
71.5000	235.807
72.0000	235.854
72.5000	235.905
73.0000	235.936
73.5000	236.018
74.0000	236.049
74.5000	236.018
75.0000	236.087
75.5000	236.049
76.0000	236.037
76.5000	236.139
77.0000	236.146
77.5000	236.182
78.0000	236.179
78.5000	236.192
79.0000	236.231
79.5000	236.26
80.0000	236.318
80.5000	236.306
81.0000	236.351
81.5000	236.339
82.0000	236.368
82.5000	236.389
83.0000	236.378
83.5000	236.445
84.0000	236.477
84.5000	236.518
85.0000	236.534
85.5000	236.562
86.0000	236.556
86.5000	236.548
87.0000	236.553
87.5000	236.57
88.0000	236.608
88.5000	236.651
89.0000	236.685
89.5000	236.698
90.0000	236.759
90.5000	236.765
91.0000	236.794
91.5000	236.846
92.0000	236.852
92.5000	236.911
93.0000	236.921
93.5000	236.891
94.0000	236.893
94.5000	236.906
95.0000	236.958
95.5000	237.018
96.0000	237.053
96.5000	237.096
97.0000	237.086
97.5000	237.128
98.0000	237.117
98.5000	237.137
99.0000	237.206
99.5000	237.224
100.0000	237.257
100.5000	237.255
101.0000	237.28
101.5000	237.305
102.0000	237.331
102.5000	237.382
103.0000	237.41
103.5000	237.414
104.0000	237.435
104.5000	237.461
105.0000	237.487
105.5000	237.54
106.0000	237.557
106.5000	237.554
107.0000	237.589
107.5000	237.591
108.0000	237.668
108.5000	237.742
109.0000	237.699
109.5000	237.744
110.0000	237.749
110.5000	237.766
111.0000	237.852
111.5000	237.871
112.0000	237.898
112.5000	237.892
113.0000	237.916
113.5000	237.948
114.0000	237.984
114.5000	238.003
115.0000	237.976
115.5000	237.956
116.0000	237.97
116.5000	238.01
117.0000	238.072
117.5000	238.113
118.0000	238.131
118.5000	238.135
119.0000	238.126
119.5000	238.188
120.0000	238.194
120.5000	238.208
121.0000	238.291
121.5000	238.23
122.0000	238.293
122.5000	238.303
123.0000	238.29
123.5000	238.325
124.0000	238.308
124.5000	238.375
125.0000	238.345
125.5000	238.391
126.0000	238.446
126.5000	238.448
127.0000	238.532
127.5000	238.539
128.0000	238.55
128.5000	238.559
129.0000	238.563
129.5000	238.596
130.0000	238.586
130.5000	238.629
131.0000	238.696
131.5000	238.735
132.0000	238.742
132.5000	238.753
133.0000	238.739
133.5000	238.701
134.0000	238.709
134.5000	238.758
135.0000	238.733
135.5000	238.763
136.0000	238.802
136.5000	238.788
137.0000	238.841
137.5000	238.853
138.0000	238.896
138.5000	238.887
139.0000	238.958
139.5000	238.998
140.0000	239.004
140.5000	239.004
141.0000	239.011
141.5000	239.068
142.0000	239.087
142.5000	239.122
143.0000	239.098
143.5000	239.043
144.0000	239.016
144.5000	239.018
145.0000	239.02
145.5000	239.088
146.0000	239.108
146.5000	239.137
147.0000	239.139
147.5000	239.136
148.0000	239.173
148.5000	239.192
149.0000	239.237
149.5000	239.246
150.0000	239.225
150.5000	239.224
151.0000	239.217
151.5000	239.211
152.0000	239.242
152.5000	239.275
153.0000	239.273
153.5000	239.278
154.0000	239.326
154.5000	239.363
155.0000	239.347
155.5000	239.41
156.0000	239.461
156.5000	239.504
157.0000	239.522
157.5000	239.541
158.0000	239.46
158.5000	239.402
159.0000	239.43
159.5000	239.41
160.0000	239.472
160.5000	239.549
161.0000	239.561
161.5000	239.614
162.0000	239.643
162.5000	239.613
163.0000	239.653
163.5000	239.63
164.0000	239.606
164.5000	239.636
165.0000	239.663
165.5000	239.676
166.0000	239.723
166.5000	239.729
167.0000	239.718
167.5000	239.728
168.0000	239.768
168.5000	239.794
169.0000	239.81
169.5000	239.842
170.0000	239.838
170.5000	239.839
171.0000	239.862
171.5000	239.84
172.0000	239.819
172.5000	239.857
173.0000	239.883
173.5000	239.927
174.0000	239.946
174.5000	239.933
175.0000	239.914
175.5000	239.903
176.0000	239.96
176.5000	239.989
177.0000	240.008
177.5000	240.013
178.0000	239.974
178.5000	239.964
179.0000	239.993
179.5000	240.03
180.0000	240.039
180.5000	240.067
181.0000	240.036
181.5000	240.073
182.0000	240.106
182.5000	240.061
183.0000	240.133
183.5000	240.117
184.0000	240.118
184.5000	240.212
185.0000	240.199
185.5000	240.23
186.0000	240.253
186.5000	240.235
187.0000	240.223
187.5000	240.24
188.0000	240.217
188.5000	240.212
189.0000	240.259
189.5000	240.203
190.0000	240.245
190.5000	240.29
191.0000	240.267
191.5000	240.34
192.0000	240.346
192.5000	240.361
193.0000	240.364
193.5000	240.343
194.0000	240.37
194.5000	240.337
195.0000	240.368
195.5000	240.433
196.0000	240.443
196.5000	240.491
197.0000	240.53
197.5000	240.543
198.0000	240.481
198.5000	240.502
199.0000	240.489
199.5000	240.45
200.0000	240.515
200.5000	240.496
201.0000	240.415
201.5000	240.49
202.0000	240.468
202.5000	240.466
203.0000	240.588
203.5000	240.494
204.0000	240.542
204.5000	240.58
205.0000	240.524
205.5000	240.582
206.0000	240.586
206.5000	240.568
207.0000	240.642
207.5000	240.625
208.0000	240.665
208.5000	240.7
209.0000	240.709
209.5000	240.793
210.0000	240.75
210.5000	240.707
211.0000	240.706
211.5000	240.699
212.0000	240.728
212.5000	240.775
213.0000	240.818
213.5000	240.784
214.0000	240.816
214.5000	240.832
215.0000	240.788
215.5000	240.828
216.0000	240.837
216.5000	240.831
217.0000	240.854
217.5000	240.858
218.0000	240.855
218.5000	240.886
219.0000	240.892
219.5000	240.916
220.0000	240.902
220.5000	240.906
221.0000	240.944
221.5000	240.964
222.0000	241.016
222.5000	241.046
223.0000	241.048
223.5000	241.02
224.0000	241.024
224.5000	240.995
225.0000	241.034
225.5000	241.038
226.0000	241.024
226.5000	241.036
227.0000	241.027
227.5000	241.053
228.0000	241.08
228.5000	241.099
229.0000	241.119
229.5000	241.151
230.0000	241.139
230.5000	241.192
231.0000	241.184
231.5000	241.193
232.0000	241.255
232.5000	241.197
233.0000	241.137
233.5000	241.151
234.0000	241.116
234.5000	241.124
235.0000	241.187
235.5000	241.16
236.0000	241.17
236.5000	241.17
237.0000	241.195
237.5000	241.23
238.0000	241.236
238.5000	241.243
239.0000	241.254
239.5000	241.263
240.0000	241.286
240.5000	241.37
241.0000	241.372
241.5000	241.375
242.0000	241.408
242.5000	241.436
243.0000	241.448
243.5000	241.448
244.0000	241.426
244.5000	241.348
245.0000	241.405
245.5000	241.366
246.0000	241.339
246.5000	241.413
247.0000	241.374
247.5000	241.411
248.0000	241.457
248.5000	241.453
249.0000	241.436
249.5000	241.444
250.0000	241.42
250.5000	241.431
251.0000	241.431
251.5000	241.467
252.0000	241.491
252.5000	241.522
253.0000	241.571
253.5000	241.597
254.0000	241.678
254.5000	241.618
255.0000	241.662
255.5000	241.641
256.0000	241.598
256.5000	241.622
257.0000	241.61
257.5000	241.633
258.0000	241.646
258.5000	241.674
259.0000	241.687
259.5000	241.723
260.0000	241.772
260.5000	241.78
261.0000	241.758
261.5000	241.745
262.0000	241.672
262.5000	241.638
263.0000	241.677
263.5000	241.739
264.0000	241.758
264.5000	241.82
265.0000	241.809
265.5000	241.768
266.0000	241.832
266.5000	241.836
267.0000	241.873
267.5000	241.852
268.0000	241.846
268.5000	241.873
269.0000	241.874
269.5000	241.893
270.0000	241.897
270.5000	241.898
271.0000	241.872
271.5000	241.925
272.0000	241.945
272.5000	241.938
273.0000	241.943
273.5000	241.937
274.0000	241.96
274.5000	241.962
275.0000	241.95
275.5000	241.989
276.0000	241.917
276.5000	241.986
277.0000	242.062
277.5000	242.018
278.0000	242.082
278.5000	242.047
279.0000	242.036
279.5000	242.046
280.0000	242.061
280.5000	242.06
281.0000	242.058
281.5000	242.085
282.0000	242.082
282.5000	242.062
283.0000	242.059
283.5000	242.084
284.0000	242.134
284.5000	242.175
285.0000	242.233
285.5000	242.253
286.0000	242.224
286.5000	242.253
287.0000	242.243
287.5000	242.182
288.0000	242.269
288.5000	242.281
289.0000	242.316
289.5000	242.382
290.0000	242.325
290.5000	242.351
291.0000	242.337
291.5000	242.347
292.0000	242.372
292.5000	242.353
293.0000	242.347
293.5000	242.368
294.0000	242.381
294.5000	242.428
295.0000	242.428
295.5000	242.455
296.0000	242.466
296.5000	242.436
297.0000	242.495
297.5000	242.456
298.0000	242.447
298.5000	242.465
299.0000	242.418
299.5000	242.443
300.0000	242.44
300.5000	242.439
301.0000	242.467
301.5000	242.469
302.0000	242.523
302.5000	242.515
303.0000	242.591
303.5000	242.592
304.0000	242.573
304.5000	242.58
305.0000	242.533
305.5000	242.562
306.0000	242.575
306.5000	242.62
307.0000	242.627
307.5000	242.63
308.0000	242.628
308.5000	242.667
309.0000	242.639
309.5000	242.657
310.0000	242.68
310.5000	242.647
311.0000	242.723
311.5000	242.716
312.0000	242.72
312.5000	242.713
313.0000	242.682
313.5000	242.701
314.0000	242.746
314.5000	242.813
315.0000	242.859
315.5000	242.878
316.0000	242.865
316.5000	242.835
317.0000	242.83
317.5000	242.801
318.0000	242.818
318.5000	242.829
319.0000	242.826
319.5000	242.855
320.0000	242.859
320.5000	242.892
321.0000	242.916
321.5000	242.989
322.0000	242.962
322.5000	242.962
323.0000	243.002
323.5000	242.963
324.0000	243.047
324.5000	243.056
325.0000	243.045
325.5000	243.067
326.0000	243.058
326.5000	243.081
327.0000	243.087
327.5000	243.045
328.0000	243.023
328.5000	243.037
329.0000	243.05
329.5000	243.087
330.0000	243.109
330.5000	243.102
331.0000	243.15
331.5000	243.14
332.0000	243.159
332.5000	243.135
333.0000	243.103
333.5000	243.144
334.0000	243.144
334.5000	243.199
335.0000	243.195
335.5000	243.209
336.0000	243.192
336.5000	243.195
337.0000	243.209
337.5000	243.23
338.0000	243.232
338.5000	243.17
339.0000	243.14
339.5000	243.093
340.0000	243.114
340.5000	243.17
341.0000	243.227
341.5000	243.274
342.0000	243.28
342.5000	243.309
343.0000	243.315
343.5000	243.264
344.0000	243.276
344.5000	243.312
345.0000	243.318
345.5000	243.365
346.0000	243.402
346.5000	243.376
347.0000	243.412
347.5000	243.466
348.0000	243.513
348.5000	243.451
349.0000	243.451
349.5000	243.426
350.0000	243.4
350.5000	243.502
351.0000	243.475
351.5000	243.483
352.0000	243.5
352.5000	243.517
353.0000	243.56
353.5000	243.558
354.0000	243.566
354.5000	243.546
355.0000	243.551
355.5000	243.569
356.0000	243.579
356.5000	243.59
357.0000	243.58
357.5000	243.627
358.0000	243.659
358.5000	243.667
359.0000	243.674
359.5000	243.672
360.0000	243.661
360.5000	243.649
361.0000	243.655
361.5000	243.65
362.0000	243.67
362.5000	243.646
363.0000	243.663
363.5000	243.716
364.0000	243.676
364.5000	243.757
365.0000	243.785
365.5000	243.751
366.0000	243.77
366.5000	243.711
367.0000	243.734
367.5000	243.749
368.0000	243.743
368.5000	243.793
369.0000	243.751
369.5000	243.759
370.0000	243.763
370.5000	243.807
371.0000	243.881
371.5000	243.882
372.0000	243.933
372.5000	243.936
373.0000	243.9
373.5000	243.923
374.0000	243.925
374.5000	243.932
375.0000	243.969
375.5000	243.968
376.0000	244.011
376.5000	244.029
377.0000	244.033
377.5000	244.051
378.0000	243.981
378.5000	243.986
379.0000	243.982
379.5000	243.99
380.0000	244.043
380.5000	244.063
381.0000	244.103
381.5000	244.153
382.0000	244.163
382.5000	244.171
383.0000	244.196
383.5000	244.181
384.0000	244.197
384.5000	244.268
385.0000	244.265
385.5000	244.257
386.0000	244.251
386.5000	244.197
387.0000	244.167
387.5000	244.207
388.0000	244.236
388.5000	244.226
389.0000	244.29
389.5000	244.345
390.0000	244.343
390.5000	244.408
391.0000	244.386
391.5000	244.332
392.0000	244.348
392.5000	244.34
393.0000	244.37
393.5000	244.379
394.0000	244.418
394.5000	244.388
395.0000	244.388
395.5000	244.432
396.0000	244.413
396.5000	244.471
397.0000	244.477
397.5000	244.476
398.0000	244.484
398.5000	244.45
399.0000	244.482
399.5000	244.489
400.0000	244.537
400.5000	244.583
401.0000	244.591
401.5000	244.632
402.0000	244.613
402.5000	244.597
403.0000	244.575
403.5000	244.558
404.0000	244.604
404.5000	244.684
405.0000	244.715
405.5000	244.724
406.0000	244.728
406.5000	244.683
407.0000	244.725
407.5000	244.787
408.0000	244.777
408.5000	244.773
409.0000	244.739
409.5000	244.683
410.0000	244.699
410.5000	244.747
411.0000	244.797
411.5000	244.792
412.0000	244.758
412.5000	244.763
413.0000	244.763
413.5000	244.837
414.0000	244.907
414.5000	244.876
415.0000	244.845
415.5000	244.826
416.0000	244.782
416.5000	244.85
417.0000	244.877
417.5000	244.868
418.0000	244.903
418.5000	244.86
419.0000	244.871
419.5000	244.893
420.0000	244.964
420.5000	244.98
421.0000	245.025
421.5000	245.029
422.0000	244.99
422.5000	245.052
423.0000	245.027
423.5000	245.022
424.0000	245.023
424.5000	244.974
425.0000	244.996
425.5000	245.005
426.0000	245.043
426.5000	245.105
427.0000	245.084
427.5000	245.113
428.0000	245.077
428.5000	245.059
429.0000	245.11
429.5000	245.171
430.0000	245.194
430.5000	245.196
431.0000	245.2
431.5000	245.191
432.0000	245.209
432.5000	245.181
433.0000	245.202
433.5000	245.158
434.0000	245.208
434.5000	245.31
435.0000	245.295
435.5000	245.28
436.0000	245.281
436.5000	245.273
437.0000	245.32
437.5000	245.424
438.0000	245.445
438.5000	245.426
439.0000	245.405
439.5000	245.396
440.0000	245.371
440.5000	245.349
441.0000	245.328
441.5000	245.317
442.0000	245.333
442.5000	245.401
443.0000	245.465
443.5000	245.437
444.0000	245.421
444.5000	245.425
445.0000	245.426
445.5000	245.429
446.0000	245.489
446.5000	245.498
447.0000	245.489
447.5000	245.562
448.0000	245.53
448.5000	245.539
449.0000	245.571
449.5000	245.594
450.0000	245.634
450.5000	245.62
451.0000	245.623
451.5000	245.636
452.0000	245.627
452.5000	245.671
453.0000	245.722
453.5000	245.713
454.0000	245.723
454.5000	245.748
455.0000	245.749
455.5000	245.774
456.0000	245.798
456.5000	245.772
457.0000	245.767
457.5000	245.753
458.0000	245.825
458.5000	245.842
459.0000	245.823
459.5000	245.873
460.0000	245.783
460.5000	245.8
461.0000	245.827
461.5000	245.792
462.0000	245.826
462.5000	245.858
463.0000	245.88
463.5000	245.914
464.0000	245.952
464.5000	245.908
465.0000	245.875
465.5000	245.854
466.0000	245.889
466.5000	245.912
467.0000	245.965
467.5000	246.017
468.0000	245.999
468.5000	246.059
469.0000	246.061
469.5000	246.045
470.0000	246.056
470.5000	246.063
471.0000	246.116
471.5000	246.155
472.0000	246.14
472.5000	246.121
473.0000	246.147
473.5000	246.12
474.0000	246.178
474.5000	246.216
475.0000	246.215
475.5000	246.242
476.0000	246.191
476.5000	246.193
477.0000	246.203
477.5000	246.215
478.0000	246.221
478.5000	246.242
479.0000	246.25
479.5000	246.255
480.0000	246.339
480.5000	246.39
481.0000	246.294
481.5000	246.328
482.0000	246.325
482.5000	246.283
483.0000	246.386
483.5000	246.428
484.0000	246.396
484.5000	246.418
485.0000	246.439
485.5000	246.437
486.0000	246.498
486.5000	246.473
487.0000	246.445
487.5000	246.433
488.0000	246.441
488.5000	246.437
489.0000	246.489
489.5000	246.491
490.0000	246.537
490.5000	246.608
491.0000	246.542
491.5000	246.572
492.0000	246.587
492.5000	246.588
493.0000	246.644
493.5000	246.681
494.0000	246.638
494.5000	246.617
495.0000	246.664
495.5000	246.658
496.0000	246.665
496.5000	246.697
497.0000	246.665
497.5000	246.646
498.0000	246.681
498.5000	246.697
499.0000	246.727
499.5000	246.716
500.0000	246.741
500.5000	246.731
501.0000	246.743
501.5000	246.815
502.0000	246.786
502.5000	246.834
503.0000	246.826
503.5000	246.806
504.0000	246.819
504.5000	246.764
505.0000	246.795
505.5000	246.863
506.0000	246.949
506.5000	246.999
507.0000	247.018
507.5000	247.013
508.0000	246.998
508.5000	247.081
509.0000	247.1
509.5000	247.047
510.0000	247.046
510.5000	247.023
511.0000	247.061
511.5000	247.055
512.0000	247.042
512.5000	247.044
513.0000	247.075
513.5000	247.115
514.0000	247.16
514.5000	247.199
515.0000	247.149
515.5000	247.189
516.0000	247.209
516.5000	247.143
517.0000	247.105
517.5000	247.106
518.0000	247.12
518.5000	247.192
519.0000	247.253
519.5000	247.283
520.0000	247.319
520.5000	247.339
521.0000	247.355
521.5000	247.395
522.0000	247.335
522.5000	247.34
523.0000	247.346
523.5000	247.321
524.0000	247.355
524.5000	247.314
525.0000	247.337
525.5000	247.358
526.0000	247.357
526.5000	247.449
527.0000	247.464
527.5000	247.485
528.0000	247.517
528.5000	247.476
529.0000	247.452
529.5000	247.466
530.0000	247.489
530.5000	247.481
531.0000	247.526
531.5000	247.544
532.0000	247.549
532.5000	247.573
533.0000	247.607
533.5000	247.621
534.0000	247.569
534.5000	247.624
535.0000	247.638
535.5000	247.565
536.0000	247.657
536.5000	247.631
537.0000	247.644
537.5000	247.748
538.0000	247.741
538.5000	247.745
539.0000	247.744
539.5000	247.688
540.0000	247.693
540.5000	247.766
541.0000	247.756
541.5000	247.801
542.0000	247.823
542.5000	247.794
543.0000	247.831
543.5000	247.881
544.0000	247.883
544.5000	247.895
545.0000	247.914
545.5000	247.853
546.0000	247.851
546.5000	247.89
547.0000	247.861
547.5000	247.891
548.0000	247.908
548.5000	247.891
549.0000	247.93
549.5000	247.952
550.0000	247.945
550.5000	247.941
551.0000	247.933
551.5000	247.979
552.0000	248.032
552.5000	248.057
553.0000	248.072
553.5000	248.063
554.0000	248.055
554.5000	248.073
555.0000	248.067
555.5000	248.081
556.0000	248.078
556.5000	248.121
557.0000	248.156
