TITLE	
DATA TYPE	
ORIGIN	JASCO
OWNER	
DATE	22/04/19
TIME	13:48:02
SPECTROMETER/DATA SYSTEM	
RESOLUTION	
DELTAX	0.5
XUNITS	SEC
YUNITS	INTENSITY
FIRSTX	0.0000
LASTX	5000.0000
NPOINTS	10001
FIRSTY	516.00842
MAXY	516.21826
MINY	-63.51330
XYDATA
0.0000	516.008
0.5000	516.028
1.0000	516.076
1.5000	516.13
2.0000	516.041
2.5000	515.983
3.0000	516.042
3.5000	515.967
4.0000	516.019
4.5000	516.059
5.0000	516.03
5.5000	516.089
6.0000	516.07
6.5000	516.061
7.0000	516.006
7.5000	515.986
8.0000	516.063
8.5000	516.089
9.0000	516.096
9.5000	516.218
10.0000	516.148
10.5000	516.211
11.0000	500.163
11.5000	476.868
12.0000	422.976
12.5000	72.938
13.0000	-63.5133
13.5000	-37.5365
14.0000	-32.12
14.5000	-30.0018
15.0000	-29.0938
15.5000	-28.3012
16.0000	-27.6925
16.5000	-27.1708
17.0000	-26.6467
17.5000	-26.4231
18.0000	5.81352
18.5000	284.293
19.0000	278.019
19.5000	276.631
20.0000	273.956
20.5000	255.695
21.0000	256.165
21.5000	256.055
22.0000	256.008
22.5000	255.978
23.0000	256.001
23.5000	256.008
24.0000	255.946
24.5000	255.949
25.0000	255.915
25.5000	255.911
26.0000	255.968
26.5000	255.986
27.0000	255.976
27.5000	255.95
28.0000	255.873
28.5000	255.803
29.0000	255.747
29.5000	255.623
30.0000	255.574
30.5000	255.462
31.0000	255.369
31.5000	255.422
32.0000	255.379
32.5000	255.459
33.0000	255.572
33.5000	255.68
34.0000	255.851
34.5000	256.007
35.0000	256.134
35.5000	256.245
36.0000	256.376
36.5000	256.471
37.0000	256.541
37.5000	256.614
38.0000	256.603
38.5000	256.592
39.0000	256.587
39.5000	256.469
40.0000	256.458
40.5000	256.42
41.0000	256.397
41.5000	256.437
42.0000	256.386
42.5000	256.369
43.0000	256.332
43.5000	256.327
44.0000	256.392
44.5000	256.387
45.0000	256.394
45.5000	256.332
46.0000	256.272
46.5000	256.283
47.0000	256.284
47.5000	256.319
48.0000	256.341
48.5000	256.342
49.0000	256.378
49.5000	256.359
50.0000	256.315
50.5000	256.308
51.0000	256.338
51.5000	256.336
52.0000	256.336
52.5000	256.372
53.0000	256.396
53.5000	256.439
54.0000	256.481
54.5000	256.469
55.0000	256.402
55.5000	256.368
56.0000	256.385
56.5000	256.425
57.0000	256.463
57.5000	256.541
58.0000	256.558
58.5000	256.55
59.0000	256.574
59.5000	256.601
60.0000	256.574
60.5000	256.568
61.0000	256.619
61.5000	256.583
62.0000	256.671
62.5000	256.72
63.0000	256.686
63.5000	256.751
64.0000	256.742
64.5000	256.741
65.0000	256.74
65.5000	256.742
66.0000	256.779
66.5000	256.745
67.0000	256.843
67.5000	256.846
68.0000	256.857
68.5000	256.895
69.0000	256.844
69.5000	256.857
70.0000	256.843
70.5000	256.874
71.0000	256.878
71.5000	256.903
72.0000	256.885
72.5000	256.914
73.0000	256.956
73.5000	256.979
74.0000	257.012
74.5000	257.003
75.0000	256.985
75.5000	256.945
76.0000	256.974
76.5000	257.016
77.0000	257.02
77.5000	256.992
78.0000	256.991
78.5000	256.998
79.0000	257.032
79.5000	257.113
80.0000	257.132
80.5000	257.122
81.0000	257.143
81.5000	257.134
82.0000	257.166
82.5000	257.13
83.0000	257.145
83.5000	257.148
84.0000	257.147
84.5000	257.15
85.0000	257.151
85.5000	257.175
86.0000	257.149
86.5000	257.217
87.0000	257.213
87.5000	257.197
88.0000	257.204
88.5000	257.237
89.0000	257.214
89.5000	257.284
90.0000	257.339
90.5000	257.291
91.0000	257.382
91.5000	257.352
92.0000	257.336
92.5000	257.422
93.0000	257.394
93.5000	257.389
94.0000	257.457
94.5000	257.396
95.0000	257.401
95.5000	257.427
96.0000	257.471
96.5000	257.499
97.0000	257.536
97.5000	257.579
98.0000	257.526
98.5000	257.545
99.0000	257.491
99.5000	257.503
100.0000	257.47
100.5000	257.423
101.0000	257.507
101.5000	257.478
102.0000	257.494
102.5000	257.501
103.0000	257.484
103.5000	257.526
104.0000	257.536
104.5000	257.587
105.0000	257.579
105.5000	257.592
106.0000	257.605
106.5000	257.606
107.0000	257.598
107.5000	257.583
108.0000	257.611
108.5000	257.645
109.0000	257.693
109.5000	257.72
110.0000	257.713
110.5000	257.763
111.0000	257.752
111.5000	257.762
112.0000	257.748
112.5000	257.705
113.0000	257.744
113.5000	257.73
114.0000	257.722
114.5000	257.735
115.0000	257.736
115.5000	257.77
116.0000	257.85
116.5000	257.886
117.0000	257.909
117.5000	257.911
118.0000	257.89
118.5000	257.866
119.0000	257.837
119.5000	257.815
120.0000	257.858
120.5000	257.908
121.0000	257.906
121.5000	257.943
122.0000	257.937
122.5000	257.929
123.0000	257.947
123.5000	258
124.0000	258.029
124.5000	258.052
125.0000	258.113
125.5000	258.083
126.0000	258.013
126.5000	258.006
127.0000	257.973
127.5000	258.047
128.0000	258.096
128.5000	258.133
129.0000	258.17
129.5000	258.105
130.0000	258.123
130.5000	258.105
131.0000	258.048
131.5000	258.029
132.0000	258.043
132.5000	258.081
133.0000	258.126
133.5000	258.153
134.0000	258.237
134.5000	258.213
135.0000	258.212
135.5000	258.222
136.0000	258.146
136.5000	258.183
137.0000	258.192
137.5000	258.249
138.0000	258.256
138.5000	258.239
139.0000	258.268
139.5000	258.234
140.0000	258.252
140.5000	258.236
141.0000	258.188
141.5000	258.18
142.0000	258.238
142.5000	258.302
143.0000	258.335
143.5000	258.378
144.0000	258.311
144.5000	258.295
145.0000	258.341
145.5000	258.348
146.0000	258.431
146.5000	258.385
147.0000	258.384
147.5000	258.382
148.0000	258.441
148.5000	258.467
149.0000	258.438
149.5000	258.431
150.0000	258.332
150.5000	258.348
151.0000	258.389
151.5000	258.404
152.0000	258.444
152.5000	258.472
153.0000	258.499
153.5000	258.529
154.0000	258.491
154.5000	258.519
155.0000	258.496
155.5000	258.474
156.0000	258.494
156.5000	258.505
157.0000	258.508
157.5000	258.56
158.0000	258.622
158.5000	258.619
159.0000	258.675
159.5000	258.649
160.0000	258.589
160.5000	258.584
161.0000	258.537
161.5000	258.511
162.0000	258.548
162.5000	258.603
163.0000	258.656
163.5000	258.694
164.0000	258.728
164.5000	258.698
165.0000	258.705
165.5000	258.74
166.0000	258.703
166.5000	258.65
167.0000	258.638
167.5000	258.643
168.0000	258.667
168.5000	258.719
169.0000	258.727
169.5000	258.712
170.0000	258.771
170.5000	258.741
171.0000	258.792
171.5000	258.79
172.0000	258.792
172.5000	258.831
173.0000	258.83
173.5000	258.905
174.0000	258.932
174.5000	258.974
175.0000	259.008
175.5000	259.001
176.0000	258.954
176.5000	258.938
177.0000	258.886
177.5000	258.86
178.0000	258.863
178.5000	258.9
179.0000	258.942
179.5000	258.963
180.0000	258.979
180.5000	258.984
181.0000	259.053
181.5000	259.058
182.0000	259.057
182.5000	259.072
183.0000	258.959
183.5000	258.993
184.0000	259.039
184.5000	258.995
185.0000	259.067
185.5000	259.008
186.0000	259.007
186.5000	259.085
187.0000	259.123
187.5000	259.188
188.0000	259.222
188.5000	259.171
189.0000	259.197
189.5000	259.176
190.0000	259.168
190.5000	259.148
191.0000	259.11
191.5000	259.179
192.0000	259.189
192.5000	259.229
193.0000	259.241
193.5000	259.265
194.0000	259.228
194.5000	259.291
195.0000	259.268
195.5000	259.224
196.0000	259.251
196.5000	259.266
197.0000	259.327
197.5000	259.335
198.0000	259.307
198.5000	259.346
199.0000	259.292
199.5000	259.316
200.0000	259.436
200.5000	259.369
201.0000	259.402
201.5000	259.445
202.0000	259.441
202.5000	259.482
203.0000	259.473
203.5000	259.454
204.0000	259.405
204.5000	259.408
205.0000	259.464
205.5000	259.467
206.0000	259.465
206.5000	259.466
207.0000	259.431
207.5000	259.425
208.0000	259.431
208.5000	259.481
209.0000	259.49
209.5000	259.518
210.0000	259.565
210.5000	259.517
211.0000	259.525
211.5000	259.513
212.0000	259.509
212.5000	259.554
213.0000	259.533
213.5000	259.636
214.0000	259.635
214.5000	259.574
215.0000	259.666
215.5000	259.6
216.0000	259.66
216.5000	259.734
217.0000	259.727
217.5000	259.711
218.0000	259.674
218.5000	259.661
219.0000	259.643
219.5000	259.633
220.0000	259.635
220.5000	259.682
221.0000	259.703
221.5000	259.754
222.0000	259.736
222.5000	259.732
223.0000	259.754
223.5000	259.726
224.0000	259.764
224.5000	259.728
225.0000	259.738
225.5000	259.777
226.0000	259.782
226.5000	259.801
227.0000	259.825
227.5000	259.828
228.0000	259.88
228.5000	259.965
229.0000	259.975
229.5000	259.992
230.0000	259.975
230.5000	259.946
231.0000	259.885
231.5000	259.948
232.0000	259.987
232.5000	259.981
233.0000	260.032
233.5000	260.028
234.0000	259.991
234.5000	259.97
235.0000	259.949
235.5000	259.931
236.0000	259.922
236.5000	259.951
237.0000	259.963
237.5000	259.962
238.0000	259.986
238.5000	260.02
239.0000	260.025
239.5000	260.028
240.0000	259.982
240.5000	259.937
241.0000	259.956
241.5000	259.954
242.0000	260.026
242.5000	260.038
243.0000	260.077
243.5000	260.144
244.0000	260.128
244.5000	260.167
245.0000	260.153
245.5000	260.116
246.0000	260.142
246.5000	260.154
247.0000	260.139
247.5000	260.109
248.0000	260.15
248.5000	260.208
249.0000	260.227
249.5000	260.237
250.0000	260.196
250.5000	260.155
251.0000	260.214
251.5000	260.258
252.0000	260.306
252.5000	260.324
253.0000	260.304
253.5000	260.273
254.0000	260.281
254.5000	260.247
255.0000	260.222
255.5000	260.264
256.0000	260.249
256.5000	260.292
257.0000	260.316
257.5000	260.353
258.0000	260.405
258.5000	260.4
259.0000	260.409
259.5000	260.386
260.0000	260.354
260.5000	260.386
261.0000	260.395
261.5000	260.395
262.0000	260.421
262.5000	260.397
263.0000	260.377
263.5000	260.439
264.0000	260.429
264.5000	260.442
265.0000	260.513
265.5000	260.457
266.0000	260.419
266.5000	260.386
267.0000	260.386
267.5000	260.414
268.0000	260.451
268.5000	260.497
269.0000	260.474
269.5000	260.451
270.0000	260.459
270.5000	260.474
271.0000	260.49
271.5000	260.523
272.0000	260.544
272.5000	260.575
273.0000	260.611
273.5000	260.57
274.0000	260.584
274.5000	260.517
275.0000	260.464
275.5000	260.523
276.0000	260.553
276.5000	260.598
277.0000	260.63
277.5000	260.581
278.0000	260.565
278.5000	260.514
279.0000	260.49
279.5000	260.513
280.0000	260.538
280.5000	260.598
281.0000	260.624
281.5000	260.682
282.0000	260.597
282.5000	260.631
283.0000	260.64
283.5000	260.667
284.0000	260.766
284.5000	260.765
285.0000	260.792
285.5000	260.751
286.0000	260.768
286.5000	260.826
287.0000	260.863
287.5000	260.933
288.0000	260.907
288.5000	260.856
289.0000	260.863
289.5000	260.832
290.0000	260.85
290.5000	260.883
291.0000	260.877
291.5000	260.909
292.0000	260.942
292.5000	260.911
293.0000	260.891
293.5000	260.858
294.0000	260.841
294.5000	260.82
295.0000	260.843
295.5000	260.859
296.0000	260.831
296.5000	260.869
297.0000	260.936
297.5000	260.905
298.0000	260.939
298.5000	260.981
299.0000	260.948
299.5000	260.948
300.0000	260.969
300.5000	260.96
301.0000	260.981
301.5000	261.03
302.0000	261.026
302.5000	261.046
303.0000	261.043
303.5000	260.996
304.0000	261.033
304.5000	261.022
305.0000	261.007
305.5000	261.052
306.0000	261.04
306.5000	261.069
307.0000	261.027
307.5000	261.049
308.0000	261.043
308.5000	261.05
309.0000	261.061
309.5000	260.995
310.0000	260.976
310.5000	260.985
311.0000	261.021
311.5000	261.054
312.0000	261.078
312.5000	261.06
313.0000	261.107
313.5000	261.171
314.0000	261.199
314.5000	261.202
315.0000	261.193
315.5000	261.175
316.0000	261.175
316.5000	261.218
317.0000	261.239
317.5000	261.27
318.0000	261.259
318.5000	261.217
319.0000	261.212
319.5000	261.196
320.0000	261.237
320.5000	261.283
321.0000	261.288
321.5000	261.291
322.0000	261.285
322.5000	261.272
323.0000	261.32
323.5000	261.311
324.0000	261.265
324.5000	261.288
325.0000	261.229
325.5000	261.28
326.0000	261.343
326.5000	261.315
327.0000	261.374
327.5000	261.377
328.0000	261.394
328.5000	261.422
329.0000	261.392
329.5000	261.381
330.0000	261.336
330.5000	261.343
331.0000	261.321
331.5000	261.388
332.0000	261.387
332.5000	261.374
333.0000	261.393
333.5000	261.358
334.0000	261.412
334.5000	261.446
335.0000	261.46
335.5000	261.493
336.0000	261.461
336.5000	261.489
337.0000	261.479
337.5000	261.465
338.0000	261.525
338.5000	261.518
339.0000	261.562
339.5000	261.591
340.0000	261.618
340.5000	261.634
341.0000	261.633
341.5000	261.593
342.0000	261.593
342.5000	261.568
343.0000	261.593
343.5000	261.625
344.0000	261.606
344.5000	261.592
345.0000	261.577
345.5000	261.603
346.0000	261.593
346.5000	261.63
347.0000	261.63
347.5000	261.639
348.0000	261.628
348.5000	261.634
349.0000	261.666
349.5000	261.631
350.0000	261.642
350.5000	261.638
351.0000	261.671
351.5000	261.662
352.0000	261.717
352.5000	261.8
353.0000	261.786
353.5000	261.829
354.0000	261.79
354.5000	261.75
355.0000	261.73
355.5000	261.723
356.0000	261.712
356.5000	261.688
357.0000	261.721
357.5000	261.736
358.0000	261.824
358.5000	261.843
359.0000	261.841
359.5000	261.836
360.0000	261.821
360.5000	261.856
361.0000	261.89
361.5000	261.889
362.0000	261.889
362.5000	261.925
363.0000	261.928
363.5000	261.961
364.0000	261.941
364.5000	261.88
365.0000	261.88
365.5000	261.889
366.0000	261.89
366.5000	261.89
367.0000	261.889
367.5000	261.845
368.0000	261.856
368.5000	261.931
369.0000	261.933
369.5000	261.924
370.0000	261.981
370.5000	261.94
371.0000	261.971
371.5000	262.057
372.0000	262.021
372.5000	262.026
373.0000	262.016
373.5000	261.994
374.0000	262.013
374.5000	262.019
375.0000	262.003
375.5000	262.043
376.0000	262.008
376.5000	262.019
377.0000	262.051
377.5000	262.037
378.0000	262.092
378.5000	262.107
379.0000	262.096
379.5000	262.102
380.0000	262.093
380.5000	262.097
381.0000	262.101
381.5000	262.105
382.0000	262.118
382.5000	262.135
383.0000	262.121
383.5000	262.135
384.0000	262.151
384.5000	262.141
385.0000	262.21
385.5000	262.183
386.0000	262.126
386.5000	262.106
387.0000	262.031
387.5000	262.07
388.0000	262.143
388.5000	262.23
389.0000	262.316
389.5000	262.337
390.0000	262.364
390.5000	262.323
391.0000	262.307
391.5000	262.327
392.0000	262.278
392.5000	262.327
393.0000	262.36
393.5000	262.363
394.0000	262.356
394.5000	262.319
395.0000	262.288
395.5000	262.277
396.0000	262.313
396.5000	262.326
397.0000	262.322
397.5000	262.346
398.0000	262.398
398.5000	262.394
399.0000	262.403
399.5000	262.447
400.0000	262.434
400.5000	262.439
401.0000	262.472
401.5000	262.378
402.0000	262.421
402.5000	262.452
403.0000	262.444
403.5000	262.518
404.0000	262.5
404.5000	262.478
405.0000	262.534
405.5000	262.55
406.0000	262.475
406.5000	262.527
407.0000	262.444
407.5000	262.396
408.0000	262.517
408.5000	262.533
409.0000	262.592
409.5000	262.622
410.0000	262.595
410.5000	262.598
411.0000	262.648
411.5000	262.664
412.0000	262.66
412.5000	262.66
413.0000	262.651
413.5000	262.631
414.0000	262.652
414.5000	262.637
415.0000	262.644
415.5000	262.679
416.0000	262.634
416.5000	262.651
417.0000	262.641
417.5000	262.677
418.0000	262.683
418.5000	262.647
419.0000	262.639
419.5000	262.602
420.0000	262.64
420.5000	262.747
421.0000	262.741
421.5000	262.762
422.0000	262.835
422.5000	262.759
423.0000	262.806
423.5000	262.821
424.0000	262.758
424.5000	262.763
425.0000	262.76
425.5000	262.826
426.0000	262.923
426.5000	262.917
427.0000	262.958
427.5000	262.867
428.0000	262.776
428.5000	262.883
429.0000	262.838
429.5000	262.816
430.0000	262.869
430.5000	262.844
431.0000	262.839
431.5000	262.918
432.0000	262.889
432.5000	262.85
433.0000	262.89
433.5000	262.911
434.0000	262.948
434.5000	262.942
435.0000	262.88
435.5000	262.931
436.0000	262.969
436.5000	263.005
437.0000	263.098
437.5000	263.075
438.0000	263.06
438.5000	263.085
439.0000	263.072
439.5000	263.052
440.0000	263.067
440.5000	263.075
441.0000	263.058
441.5000	263.056
442.0000	263.029
442.5000	263.005
443.0000	263.019
443.5000	263.032
444.0000	263.016
444.5000	263.056
445.0000	263.099
445.5000	263.151
446.0000	263.178
446.5000	263.189
447.0000	263.196
447.5000	263.221
448.0000	263.258
448.5000	263.266
449.0000	263.266
449.5000	263.221
450.0000	263.179
450.5000	263.17
451.0000	263.153
451.5000	263.159
452.0000	263.167
452.5000	263.201
453.0000	263.226
453.5000	263.255
454.0000	263.309
454.5000	263.297
455.0000	263.26
455.5000	263.252
456.0000	263.235
456.5000	263.28
457.0000	263.349
457.5000	263.353
458.0000	263.348
458.5000	263.339
459.0000	263.354
459.5000	263.368
460.0000	263.363
460.5000	263.361
461.0000	263.365
461.5000	263.348
462.0000	263.38
462.5000	263.376
463.0000	263.337
463.5000	263.405
464.0000	263.434
464.5000	263.487
465.0000	263.518
465.5000	263.459
466.0000	263.469
466.5000	263.431
467.0000	263.461
467.5000	263.546
468.0000	263.599
468.5000	263.585
469.0000	263.583
469.5000	263.573
470.0000	263.549
470.5000	263.588
471.0000	263.56
471.5000	263.562
472.0000	263.602
472.5000	263.623
473.0000	263.663
473.5000	263.689
474.0000	263.646
474.5000	263.641
475.0000	263.674
475.5000	263.622
476.0000	263.665
476.5000	263.711
477.0000	263.73
477.5000	263.79
478.0000	263.808
478.5000	263.773
479.0000	263.785
479.5000	263.849
480.0000	263.891
480.5000	263.959
481.0000	263.962
481.5000	263.954
482.0000	263.919
482.5000	263.882
483.0000	263.845
483.5000	263.783
484.0000	263.787
484.5000	263.807
485.0000	263.845
485.5000	263.917
486.0000	263.862
486.5000	263.855
487.0000	263.909
487.5000	263.869
488.0000	263.908
488.5000	263.942
489.0000	263.939
489.5000	263.963
490.0000	264.033
490.5000	264.068
491.0000	264.049
491.5000	264.059
492.0000	264.017
492.5000	264.048
493.0000	264.08
493.5000	264.125
494.0000	264.139
494.5000	264.104
495.0000	264.079
495.5000	264.113
496.0000	264.155
496.5000	264.187
497.0000	264.242
497.5000	264.253
498.0000	264.315
498.5000	264.303
499.0000	264.313
499.5000	264.259
500.0000	264.293
500.5000	264.351
501.0000	264.346
501.5000	264.378
502.0000	264.327
502.5000	264.323
503.0000	264.353
503.5000	264.36
504.0000	264.403
504.5000	264.394
505.0000	264.455
505.5000	264.479
506.0000	264.439
506.5000	264.466
507.0000	264.42
507.5000	264.437
508.0000	264.477
508.5000	264.501
509.0000	264.512
509.5000	264.512
510.0000	264.525
510.5000	264.518
511.0000	264.565
511.5000	264.632
512.0000	264.672
512.5000	264.711
513.0000	264.757
513.5000	264.71
514.0000	264.678
514.5000	264.665
515.0000	264.682
515.5000	264.726
516.0000	264.778
516.5000	264.795
517.0000	264.803
517.5000	264.839
518.0000	264.793
518.5000	264.838
519.0000	264.827
519.5000	264.82
520.0000	264.903
520.5000	264.947
521.0000	264.94
521.5000	264.959
522.0000	264.956
522.5000	264.975
523.0000	264.99
523.5000	265.014
524.0000	265.015
524.5000	265.039
525.0000	265.045
525.5000	265.051
526.0000	265.176
526.5000	265.162
527.0000	265.174
527.5000	265.201
528.0000	265.164
528.5000	265.172
529.0000	265.286
529.5000	265.306
530.0000	265.327
530.5000	265.329
531.0000	265.304
531.5000	265.277
532.0000	265.261
532.5000	265.253
533.0000	265.245
533.5000	265.308
534.0000	265.306
534.5000	265.368
535.0000	265.399
535.5000	265.397
536.0000	265.449
536.5000	265.471
537.0000	265.491
537.5000	265.547
538.0000	265.544
538.5000	265.55
539.0000	265.589
539.5000	265.615
540.0000	265.678
540.5000	265.736
541.0000	265.736
541.5000	265.72
542.0000	265.713
542.5000	265.713
543.0000	265.707
543.5000	265.734
544.0000	265.743
544.5000	265.766
545.0000	265.796
545.5000	265.784
546.0000	265.807
546.5000	265.848
547.0000	265.908
547.5000	265.948
548.0000	265.998
548.5000	266.047
549.0000	266.012
549.5000	265.993
550.0000	265.99
550.5000	265.978
551.0000	265.999
551.5000	266.053
552.0000	266.055
552.5000	266.054
553.0000	266.127
553.5000	266.139
554.0000	266.183
554.5000	266.212
555.0000	266.235
555.5000	266.289
556.0000	266.282
556.5000	266.268
