TITLE	
DATA TYPE	
ORIGIN	JASCO
OWNER	
DATE	22/08/24
TIME	17:20:41
SPECTROMETER/DATA SYSTEM	
RESOLUTION	
DELTAX	0.5
XUNITS	SEC
YUNITS	INTENSITY
FIRSTX	0.0000
LASTX	1570.5000
NPOINTS	3142
FIRSTY	424.56491
MAXY	494.38351
MINY	-78.70998
XYDATA
0.0000	424.565
0.5000	424.55
1.0000	424.448
1.5000	424.413
2.0000	424.375
2.5000	424.323
3.0000	424.346
3.5000	424.34
4.0000	424.365
4.5000	424.33
5.0000	424.249
5.5000	424.187
6.0000	424.117
6.5000	424.083
7.0000	424.063
7.5000	424.006
8.0000	424.011
8.5000	423.953
9.0000	423.901
9.5000	423.84
10.0000	423.745
10.5000	423.717
11.0000	423.748
11.5000	423.717
12.0000	423.716
12.5000	423.721
13.0000	423.68
13.5000	423.659
14.0000	423.611
14.5000	423.595
15.0000	423.563
15.5000	423.518
16.0000	423.516
16.5000	423.477
17.0000	423.426
17.5000	423.422
18.0000	423.378
18.5000	423.316
19.0000	423.259
19.5000	423.254
20.0000	423.199
20.5000	423.164
21.0000	423.163
21.5000	423.087
22.0000	423.04
22.5000	422.977
23.0000	422.952
23.5000	422.971
24.0000	422.975
24.5000	423.034
25.0000	423.044
25.5000	423.015
26.0000	423.021
26.5000	422.984
27.0000	422.905
27.5000	422.818
28.0000	420.563
28.5000	409.211
29.0000	387.529
29.5000	305.945
30.0000	-78.71
30.5000	-42.1677
31.0000	-35.0098
31.5000	-32.7808
32.0000	-31.6073
32.5000	-30.9163
33.0000	-30.5042
33.5000	-30.1305
34.0000	-29.8553
34.5000	-29.6167
35.0000	-29.2294
35.5000	-29.0473
36.0000	-28.9041
36.5000	15.7553
37.0000	247.235
37.5000	244.193
38.0000	243.34
38.5000	240.758
39.0000	228.921
39.5000	229.288
40.0000	229.733
40.5000	230.19
41.0000	230.731
41.5000	231.172
42.0000	231.558
42.5000	231.953
43.0000	232.34
43.5000	232.774
44.0000	233.134
44.5000	233.513
45.0000	233.893
45.5000	234.228
46.0000	234.591
46.5000	234.98
47.0000	235.356
47.5000	235.751
48.0000	236.145
48.5000	236.527
49.0000	236.893
49.5000	237.317
50.0000	237.703
50.5000	238.118
51.0000	238.493
51.5000	238.839
52.0000	239.197
52.5000	239.539
53.0000	239.901
53.5000	240.293
54.0000	240.634
54.5000	240.964
55.0000	241.395
55.5000	241.768
56.0000	242.175
56.5000	242.583
57.0000	242.926
57.5000	243.266
58.0000	243.644
58.5000	244.048
59.0000	244.407
59.5000	244.747
60.0000	245.106
60.5000	245.439
61.0000	245.779
61.5000	246.106
62.0000	246.483
62.5000	246.841
63.0000	247.187
63.5000	247.596
64.0000	247.91
64.5000	248.246
65.0000	248.622
65.5000	248.967
66.0000	249.302
66.5000	249.674
67.0000	250.042
67.5000	250.418
68.0000	250.82
68.5000	251.163
69.0000	251.457
69.5000	251.783
70.0000	252.108
70.5000	252.464
71.0000	252.889
71.5000	253.208
72.0000	253.565
72.5000	253.922
73.0000	254.245
73.5000	254.618
74.0000	254.989
74.5000	255.29
75.0000	255.589
75.5000	255.991
76.0000	256.317
76.5000	256.67
77.0000	257.057
77.5000	257.343
78.0000	257.661
78.5000	257.994
79.0000	258.321
79.5000	258.661
80.0000	259.015
80.5000	259.375
81.0000	259.703
81.5000	260.031
82.0000	260.367
82.5000	260.682
83.0000	261.033
83.5000	261.391
84.0000	261.733
84.5000	262.08
85.0000	262.408
85.5000	262.761
86.0000	263.069
86.5000	263.396
87.0000	263.771
87.5000	264.081
88.0000	264.421
88.5000	264.786
89.0000	265.056
89.5000	265.381
90.0000	265.711
90.5000	266.042
91.0000	266.389
91.5000	266.681
92.0000	267.033
92.5000	267.291
93.0000	267.603
93.5000	267.934
94.0000	268.255
94.5000	268.585
95.0000	268.914
95.5000	269.213
96.0000	269.501
96.5000	269.792
97.0000	270.123
97.5000	270.446
98.0000	270.703
98.5000	271.07
99.0000	271.365
99.5000	271.644
100.0000	272.031
100.5000	272.327
101.0000	272.628
101.5000	272.965
102.0000	273.27
102.5000	273.585
103.0000	273.915
103.5000	274.287
104.0000	274.556
104.5000	274.843
105.0000	275.119
105.5000	275.394
106.0000	275.723
106.5000	276.053
107.0000	276.391
107.5000	276.702
108.0000	277.03
108.5000	277.304
109.0000	277.586
109.5000	277.898
110.0000	278.208
110.5000	278.563
111.0000	278.874
111.5000	279.121
112.0000	279.379
112.5000	279.645
113.0000	279.951
113.5000	280.289
114.0000	280.549
114.5000	280.884
115.0000	281.205
115.5000	281.496
116.0000	281.819
116.5000	282.07
117.0000	282.337
117.5000	282.675
118.0000	282.968
118.5000	283.27
119.0000	283.573
119.5000	283.844
120.0000	284.141
120.5000	284.453
121.0000	284.738
121.5000	285.02
122.0000	285.353
122.5000	285.64
123.0000	285.957
123.5000	286.26
124.0000	286.501
124.5000	286.752
125.0000	287
125.5000	287.296
126.0000	287.608
126.5000	287.908
127.0000	288.184
127.5000	288.431
128.0000	288.685
128.5000	288.979
129.0000	289.266
129.5000	289.551
130.0000	289.85
130.5000	290.141
131.0000	290.408
131.5000	290.677
132.0000	290.988
132.5000	291.288
133.0000	291.589
133.5000	291.865
134.0000	292.13
134.5000	292.404
135.0000	292.676
135.5000	292.984
136.0000	293.246
136.5000	293.5
137.0000	293.792
137.5000	294.05
138.0000	294.339
138.5000	294.601
139.0000	294.841
139.5000	295.127
140.0000	295.412
140.5000	295.723
141.0000	296.018
141.5000	296.244
142.0000	296.489
142.5000	296.746
143.0000	297.046
143.5000	297.374
144.0000	297.631
144.5000	297.878
145.0000	298.117
145.5000	298.364
146.0000	298.704
146.5000	298.982
147.0000	299.27
147.5000	299.539
148.0000	299.748
148.5000	299.977
149.0000	300.255
149.5000	300.492
150.0000	300.742
150.5000	301.06
151.0000	301.314
151.5000	301.629
152.0000	301.871
152.5000	302.086
153.0000	302.329
153.5000	302.569
154.0000	302.852
154.5000	303.163
155.0000	303.396
155.5000	303.64
156.0000	303.915
156.5000	304.136
157.0000	304.448
157.5000	304.731
158.0000	304.996
158.5000	305.282
159.0000	305.487
159.5000	305.708
160.0000	305.989
160.5000	306.188
161.0000	306.483
161.5000	306.736
162.0000	306.971
162.5000	307.239
163.0000	307.504
163.5000	307.802
164.0000	308.033
164.5000	308.303
165.0000	308.58
165.5000	308.807
166.0000	309.063
166.5000	309.355
167.0000	309.513
167.5000	309.721
168.0000	309.959
168.5000	310.171
169.0000	310.509
169.5000	310.836
170.0000	311.068
170.5000	311.343
171.0000	311.514
171.5000	311.713
172.0000	311.995
172.5000	312.234
173.0000	312.461
173.5000	312.687
174.0000	312.953
174.5000	313.179
175.0000	313.473
175.5000	313.712
176.0000	313.934
176.5000	314.173
177.0000	314.395
177.5000	314.644
178.0000	314.874
178.5000	315.046
179.0000	315.315
179.5000	315.589
180.0000	315.892
180.5000	316.208
181.0000	316.415
181.5000	316.645
182.0000	316.843
182.5000	317.058
183.0000	317.313
183.5000	317.51
184.0000	317.736
184.5000	317.966
185.0000	318.192
185.5000	318.431
186.0000	318.695
186.5000	318.971
187.0000	319.202
187.5000	319.432
188.0000	319.647
188.5000	319.871
189.0000	320.1
189.5000	320.343
190.0000	320.535
190.5000	320.773
191.0000	321.035
191.5000	321.292
192.0000	321.536
192.5000	321.742
193.0000	321.944
193.5000	322.172
194.0000	322.454
194.5000	322.699
195.0000	322.947
195.5000	323.22
196.0000	323.407
196.5000	323.603
197.0000	323.822
197.5000	323.976
198.0000	324.176
198.5000	324.444
199.0000	324.628
199.5000	324.88
200.0000	325.134
200.5000	325.303
201.0000	325.559
201.5000	325.786
202.0000	326.014
202.5000	326.293
203.0000	326.5
203.5000	326.729
204.0000	326.961
204.5000	327.146
205.0000	327.375
205.5000	327.585
206.0000	327.821
206.5000	328.061
207.0000	328.295
207.5000	328.558
208.0000	328.741
208.5000	328.96
209.0000	329.155
209.5000	329.364
210.0000	329.584
210.5000	329.827
211.0000	330.069
211.5000	330.267
212.0000	330.494
212.5000	330.646
213.0000	330.864
213.5000	331.101
214.0000	331.287
214.5000	331.547
215.0000	331.785
215.5000	331.971
216.0000	332.202
216.5000	332.421
217.0000	332.551
217.5000	332.766
218.0000	332.951
218.5000	333.179
219.0000	333.448
219.5000	333.618
220.0000	333.879
220.5000	334.034
221.0000	334.286
221.5000	334.565
222.0000	334.784
222.5000	335.02
223.0000	335.224
223.5000	335.44
224.0000	335.651
224.5000	335.826
225.0000	336.016
225.5000	336.229
226.0000	336.422
226.5000	336.69
227.0000	336.913
227.5000	337.116
228.0000	337.341
228.5000	337.543
229.0000	337.704
229.5000	337.883
230.0000	338.095
230.5000	338.266
231.0000	338.493
231.5000	338.693
232.0000	338.863
232.5000	339.125
233.0000	339.315
233.5000	339.525
234.0000	339.745
234.5000	339.96
235.0000	340.159
235.5000	340.405
236.0000	340.612
236.5000	340.694
237.0000	340.903
237.5000	341.068
238.0000	341.268
238.5000	341.553
239.0000	341.779
239.5000	342.008
240.0000	342.208
240.5000	342.358
241.0000	342.512
241.5000	342.665
242.0000	342.864
242.5000	343.099
243.0000	343.334
243.5000	343.525
244.0000	343.762
244.5000	343.973
245.0000	344.147
245.5000	344.345
246.0000	344.529
246.5000	344.706
247.0000	344.922
247.5000	345.121
248.0000	345.275
248.5000	345.462
249.0000	345.686
249.5000	345.887
250.0000	346.095
250.5000	346.281
251.0000	346.421
251.5000	346.667
252.0000	346.85
252.5000	347.06
253.0000	347.252
253.5000	347.375
254.0000	347.565
254.5000	347.818
255.0000	348.003
255.5000	348.199
256.0000	348.364
256.5000	348.468
257.0000	348.681
257.5000	348.91
258.0000	349.136
258.5000	349.351
259.0000	349.525
259.5000	349.716
260.0000	349.926
260.5000	350.116
261.0000	350.248
261.5000	350.399
262.0000	350.56
262.5000	350.777
263.0000	350.994
263.5000	351.171
264.0000	351.324
264.5000	351.496
265.0000	351.721
265.5000	351.87
266.0000	352.072
266.5000	352.278
267.0000	352.435
267.5000	352.676
268.0000	352.791
268.5000	352.893
269.0000	353.042
269.5000	353.218
270.0000	353.444
270.5000	353.681
271.0000	353.9
271.5000	354.126
272.0000	354.315
272.5000	354.477
273.0000	354.669
273.5000	354.793
274.0000	354.977
274.5000	355.152
275.0000	355.323
275.5000	355.524
276.0000	355.679
276.5000	355.86
277.0000	356.032
277.5000	356.202
278.0000	356.357
278.5000	356.539
279.0000	356.733
279.5000	356.922
280.0000	357.095
280.5000	357.283
281.0000	357.448
281.5000	357.576
282.0000	357.789
282.5000	357.943
283.0000	358.119
283.5000	358.323
284.0000	358.491
284.5000	358.618
285.0000	358.803
285.5000	358.978
286.0000	359.205
286.5000	359.442
287.0000	359.607
287.5000	359.77
288.0000	359.897
288.5000	360.023
289.0000	360.219
289.5000	360.408
290.0000	360.538
290.5000	360.695
291.0000	360.833
291.5000	361.005
292.0000	361.25
292.5000	361.46
293.0000	361.631
293.5000	361.751
294.0000	361.91
294.5000	362.028
295.0000	362.145
295.5000	362.316
296.0000	362.434
296.5000	362.599
297.0000	362.825
297.5000	362.999
298.0000	363.193
298.5000	363.462
299.0000	363.697
299.5000	363.915
300.0000	364.096
300.5000	364.178
301.0000	364.311
301.5000	364.467
302.0000	364.591
302.5000	364.775
303.0000	364.856
303.5000	364.927
304.0000	365.094
304.5000	365.229
305.0000	365.393
305.5000	365.6
306.0000	365.785
306.5000	365.98
307.0000	366.144
307.5000	366.32
308.0000	366.463
308.5000	366.674
309.0000	366.862
309.5000	367.026
310.0000	367.227
310.5000	367.374
311.0000	367.53
311.5000	367.663
312.0000	367.785
312.5000	367.934
313.0000	368.108
313.5000	368.287
314.0000	368.433
314.5000	368.562
315.0000	368.698
315.5000	368.881
316.0000	369.056
316.5000	369.15
317.0000	369.35
317.5000	369.469
318.0000	369.634
318.5000	369.859
319.0000	369.989
319.5000	370.121
320.0000	370.281
320.5000	370.405
321.0000	370.584
321.5000	370.748
322.0000	370.935
322.5000	371.114
323.0000	371.237
323.5000	371.419
324.0000	371.52
324.5000	371.706
325.0000	371.877
325.5000	372.003
326.0000	372.166
326.5000	372.286
327.0000	372.467
327.5000	372.659
328.0000	372.853
328.5000	373.055
329.0000	373.141
329.5000	373.231
330.0000	373.358
330.5000	373.399
331.0000	373.556
331.5000	373.716
332.0000	373.86
332.5000	374.082
333.0000	374.295
333.5000	374.451
334.0000	374.591
334.5000	374.737
335.0000	374.848
335.5000	375.027
336.0000	375.191
336.5000	375.373
337.0000	375.463
337.5000	375.622
338.0000	375.731
338.5000	375.812
339.0000	375.978
339.5000	376.105
340.0000	376.255
340.5000	376.433
341.0000	376.569
341.5000	376.73
342.0000	376.925
342.5000	377.115
343.0000	377.313
343.5000	377.506
344.0000	377.693
344.5000	377.806
345.0000	377.954
345.5000	378.112
346.0000	378.213
346.5000	378.411
347.0000	378.558
347.5000	378.622
348.0000	378.79
348.5000	378.873
349.0000	378.965
349.5000	379.158
350.0000	379.238
350.5000	379.433
351.0000	379.621
351.5000	379.786
352.0000	379.982
352.5000	380.136
353.0000	380.245
353.5000	380.355
354.0000	380.452
354.5000	380.53
355.0000	380.71
355.5000	380.861
356.0000	381.016
356.5000	381.162
357.0000	381.309
357.5000	381.435
358.0000	381.583
358.5000	381.775
359.0000	381.922
359.5000	382.064
360.0000	382.149
360.5000	382.224
361.0000	382.329
361.5000	382.48
362.0000	382.659
362.5000	382.802
363.0000	382.974
363.5000	383.125
364.0000	383.264
364.5000	383.453
365.0000	383.583
365.5000	383.76
366.0000	383.889
366.5000	384.005
367.0000	384.151
367.5000	384.206
368.0000	384.312
368.5000	384.402
369.0000	384.53
369.5000	384.677
370.0000	384.83
370.5000	385.021
371.0000	385.104
371.5000	385.231
372.0000	385.385
372.5000	385.493
373.0000	385.69
373.5000	385.77
374.0000	385.839
374.5000	385.925
375.0000	385.979
375.5000	386.142
376.0000	386.322
376.5000	386.51
377.0000	386.681
377.5000	386.798
378.0000	386.922
378.5000	387.047
379.0000	387.2
379.5000	387.423
380.0000	387.536
380.5000	387.655
381.0000	387.759
381.5000	387.808
382.0000	387.942
382.5000	388.069
383.0000	388.266
383.5000	388.318
384.0000	388.479
384.5000	388.633
385.0000	388.721
385.5000	388.894
386.0000	388.986
386.5000	389.09
387.0000	389.187
387.5000	389.386
388.0000	389.544
388.5000	389.651
389.0000	389.782
389.5000	389.893
390.0000	390.057
390.5000	390.191
391.0000	390.275
391.5000	390.392
392.0000	390.467
392.5000	390.571
393.0000	390.759
393.5000	390.841
394.0000	391.023
394.5000	391.202
395.0000	391.28
395.5000	391.457
396.0000	391.54
396.5000	391.626
397.0000	391.779
397.5000	391.898
398.0000	392.012
398.5000	392.145
399.0000	392.27
399.5000	392.376
400.0000	392.537
400.5000	392.668
401.0000	392.744
401.5000	392.854
402.0000	392.922
402.5000	393.002
403.0000	393.182
403.5000	393.257
404.0000	393.419
404.5000	393.577
405.0000	393.641
405.5000	393.788
406.0000	393.828
406.5000	393.894
407.0000	394.102
407.5000	394.275
408.0000	394.465
408.5000	394.633
409.0000	394.703
409.5000	394.798
410.0000	394.889
410.5000	395.025
411.0000	395.111
411.5000	395.215
412.0000	395.31
412.5000	395.433
413.0000	395.592
413.5000	395.672
414.0000	395.837
414.5000	395.909
415.0000	396.029
415.5000	396.181
416.0000	396.284
416.5000	396.445
417.0000	396.557
417.5000	396.654
418.0000	396.75
418.5000	396.847
419.0000	396.952
419.5000	397.031
420.0000	397.139
420.5000	397.217
421.0000	397.356
421.5000	397.55
422.0000	397.697
422.5000	397.795
423.0000	397.866
423.5000	397.995
424.0000	398.139
424.5000	398.273
425.0000	398.426
425.5000	398.493
426.0000	398.556
426.5000	398.725
427.0000	398.838
427.5000	398.982
428.0000	399.075
428.5000	399.096
429.0000	399.183
429.5000	399.296
430.0000	399.394
430.5000	399.591
431.0000	399.685
431.5000	399.743
432.0000	399.876
432.5000	399.97
433.0000	400.077
433.5000	400.215
434.0000	400.351
434.5000	400.443
435.0000	400.518
435.5000	400.637
436.0000	400.739
436.5000	400.905
437.0000	401.029
437.5000	401.149
438.0000	401.263
438.5000	401.272
439.0000	401.423
439.5000	401.52
440.0000	401.574
440.5000	401.653
441.0000	401.777
441.5000	401.92
442.0000	402.132
442.5000	402.245
443.0000	402.365
443.5000	402.414
444.0000	402.438
444.5000	402.537
445.0000	402.64
445.5000	402.825
446.0000	402.929
446.5000	403.103
447.0000	403.138
447.5000	403.177
448.0000	403.325
448.5000	403.456
449.0000	403.605
449.5000	403.716
450.0000	403.834
450.5000	403.95
451.0000	404.077
451.5000	404.126
452.0000	404.177
452.5000	404.206
453.0000	404.261
453.5000	404.453
454.0000	404.568
454.5000	404.704
455.0000	404.802
455.5000	404.876
456.0000	404.992
456.5000	405.12
457.0000	405.251
457.5000	405.367
458.0000	405.459
458.5000	405.525
459.0000	405.632
459.5000	405.695
460.0000	405.763
460.5000	405.86
461.0000	405.937
461.5000	406.047
462.0000	406.195
462.5000	406.306
463.0000	406.418
463.5000	406.569
464.0000	406.676
464.5000	406.793
465.0000	406.86
465.5000	406.961
466.0000	407.011
466.5000	407.123
467.0000	407.199
467.5000	407.226
468.0000	407.326
468.5000	407.43
469.0000	407.549
469.5000	407.655
470.0000	407.811
470.5000	407.876
471.0000	408.044
471.5000	408.163
472.0000	408.239
472.5000	408.39
473.0000	408.485
473.5000	408.581
474.0000	408.638
474.5000	408.703
475.0000	408.807
475.5000	408.923
476.0000	408.979
476.5000	409.07
477.0000	409.091
477.5000	409.19
478.0000	409.37
478.5000	409.451
479.0000	409.589
479.5000	409.662
480.0000	409.769
480.5000	409.906
481.0000	409.968
481.5000	410.106
482.0000	410.178
482.5000	410.25
483.0000	410.429
483.5000	410.533
484.0000	410.621
484.5000	410.762
485.0000	410.814
485.5000	410.96
486.0000	411.049
486.5000	411.134
487.0000	411.246
487.5000	411.189
488.0000	411.314
488.5000	411.386
489.0000	411.458
489.5000	411.648
490.0000	411.741
490.5000	411.854
491.0000	411.904
491.5000	411.933
492.0000	411.979
492.5000	412.04
493.0000	412.185
493.5000	412.313
494.0000	412.507
494.5000	412.642
495.0000	412.804
495.5000	412.873
496.0000	412.92
496.5000	412.972
497.0000	413.02
497.5000	413.193
498.0000	413.358
498.5000	413.429
499.0000	413.442
499.5000	413.529
500.0000	413.581
500.5000	413.71
501.0000	413.879
501.5000	413.963
502.0000	414.079
502.5000	414.16
503.0000	414.291
503.5000	414.371
504.0000	414.373
504.5000	414.449
505.0000	414.489
505.5000	414.595
506.0000	414.737
506.5000	414.867
507.0000	415.02
507.5000	415.077
508.0000	415.236
508.5000	415.273
509.0000	415.316
509.5000	415.398
510.0000	415.384
510.5000	415.512
511.0000	415.628
511.5000	415.722
512.0000	415.82
512.5000	415.889
513.0000	415.975
513.5000	416.112
514.0000	416.161
514.5000	416.228
515.0000	416.307
515.5000	416.337
516.0000	416.49
516.5000	416.587
517.0000	416.654
517.5000	416.722
518.0000	416.776
518.5000	416.962
519.0000	417.086
519.5000	417.181
520.0000	417.326
520.5000	417.348
521.0000	417.423
521.5000	417.553
522.0000	417.596
522.5000	417.711
523.0000	417.754
523.5000	417.85
524.0000	417.961
524.5000	418.037
525.0000	418.132
525.5000	418.165
526.0000	418.272
526.5000	418.36
527.0000	418.46
527.5000	418.641
528.0000	418.705
528.5000	418.803
529.0000	418.938
529.5000	418.978
530.0000	419.01
530.5000	419.1
531.0000	419.096
531.5000	419.134
532.0000	419.25
532.5000	419.348
533.0000	419.454
533.5000	419.547
534.0000	419.668
534.5000	419.739
535.0000	419.799
535.5000	419.977
536.0000	420.016
536.5000	420.124
537.0000	420.28
537.5000	420.307
538.0000	420.438
538.5000	420.401
539.0000	420.42
539.5000	420.497
540.0000	420.538
540.5000	420.683
541.0000	420.833
541.5000	420.988
542.0000	421.108
542.5000	421.203
543.0000	421.227
543.5000	421.273
544.0000	421.323
544.5000	421.477
545.0000	421.626
545.5000	421.697
546.0000	421.814
546.5000	421.829
547.0000	421.886
547.5000	421.945
548.0000	422.004
548.5000	422.147
549.0000	422.222
549.5000	422.3
550.0000	422.35
550.5000	422.401
551.0000	422.455
551.5000	422.587
552.0000	422.748
552.5000	422.807
553.0000	422.881
553.5000	422.867
554.0000	422.931
554.5000	422.969
555.0000	423.117
555.5000	423.22
556.0000	423.331
556.5000	423.437
557.0000	423.5
