TITLE	
DATA TYPE	
ORIGIN	JASCO
OWNER	
DATE	22/08/25
TIME	15:57:08
SPECTROMETER/DATA SYSTEM	
RESOLUTION	
DELTAX	0.5
XUNITS	SEC
YUNITS	INTENSITY
FIRSTX	0.0000
LASTX	1841.0000
NPOINTS	3683
FIRSTY	379.11429
MAXY	534.36328
MINY	-61.62454
XYDATA
0.0000	379.114
0.5000	379.039
1.0000	379.04
1.5000	378.997
2.0000	378.973
2.5000	378.956
3.0000	378.926
3.5000	378.879
4.0000	378.838
4.5000	378.75
5.0000	378.722
5.5000	378.697
6.0000	378.602
6.5000	378.584
7.0000	378.509
7.5000	378.487
8.0000	378.526
8.5000	378.5
9.0000	378.457
9.5000	378.432
10.0000	378.395
10.5000	378.375
11.0000	378.337
11.5000	378.352
12.0000	378.312
12.5000	378.254
13.0000	378.279
13.5000	378.136
14.0000	378.09
14.5000	378.11
15.0000	378.024
15.5000	378.059
16.0000	378.046
16.5000	377.977
17.0000	377.858
17.5000	369.084
18.0000	354.483
18.5000	315.757
19.0000	-61.6245
19.5000	-44.8523
20.0000	-33.2855
20.5000	-30.535
21.0000	-29.3263
21.5000	-28.593
22.0000	-28.1033
22.5000	-27.6168
23.0000	-27.3041
23.5000	-27.0493
24.0000	-26.9217
24.5000	-26.5212
25.0000	-25.6313
25.5000	-24.8238
26.0000	-24.4074
26.5000	-6.33167
27.0000	302.673
27.5000	298.411
28.0000	297.255
28.5000	295.845
29.0000	279.777
29.5000	280.066
30.0000	280.248
30.5000	280.397
31.0000	280.654
31.5000	280.96
32.0000	281.29
32.5000	281.672
33.0000	282.083
33.5000	282.459
34.0000	282.82
34.5000	283.186
35.0000	283.53
35.5000	283.881
36.0000	284.307
36.5000	284.75
37.0000	285.128
37.5000	285.527
38.0000	285.896
38.5000	286.283
39.0000	286.654
39.5000	287.027
40.0000	287.407
40.5000	287.707
41.0000	288.074
41.5000	288.401
42.0000	288.749
42.5000	289.121
43.0000	289.471
43.5000	289.874
44.0000	290.29
44.5000	290.668
45.0000	291.021
45.5000	291.38
46.0000	291.68
46.5000	292.035
47.0000	292.405
47.5000	292.782
48.0000	293.132
48.5000	293.51
49.0000	293.864
49.5000	294.219
50.0000	294.566
50.5000	294.901
51.0000	295.272
51.5000	295.606
52.0000	295.998
52.5000	296.409
53.0000	296.778
53.5000	297.157
54.0000	297.562
54.5000	297.9
55.0000	298.365
55.5000	298.719
56.0000	299.099
56.5000	299.522
57.0000	299.89
57.5000	300.344
58.0000	300.727
58.5000	301.113
59.0000	301.466
59.5000	301.796
60.0000	302.188
60.5000	302.548
61.0000	302.961
61.5000	303.354
62.0000	303.707
62.5000	304.052
63.0000	304.378
63.5000	304.729
64.0000	305.094
64.5000	305.451
65.0000	305.779
65.5000	306.172
66.0000	306.494
66.5000	306.845
67.0000	307.232
67.5000	307.563
68.0000	307.931
68.5000	308.308
69.0000	308.616
69.5000	308.971
70.0000	309.296
70.5000	309.643
71.0000	310.036
71.5000	310.389
72.0000	310.77
72.5000	311.104
73.0000	311.476
73.5000	311.831
74.0000	312.157
74.5000	312.505
75.0000	312.8
75.5000	313.156
76.0000	313.539
76.5000	313.934
77.0000	314.316
77.5000	314.648
78.0000	315.006
78.5000	315.325
79.0000	315.707
79.5000	316.085
80.0000	316.479
80.5000	316.841
81.0000	317.169
81.5000	317.475
82.0000	317.808
82.5000	318.19
83.0000	318.557
83.5000	318.948
84.0000	319.27
84.5000	319.627
85.0000	319.974
85.5000	320.336
86.0000	320.693
86.5000	321.041
87.0000	321.458
87.5000	321.817
88.0000	322.23
88.5000	322.606
89.0000	322.914
89.5000	323.248
90.0000	323.538
90.5000	323.874
91.0000	324.195
91.5000	324.611
92.0000	325.033
92.5000	325.37
93.0000	325.719
93.5000	325.971
94.0000	326.233
94.5000	326.563
95.0000	326.918
95.5000	327.318
96.0000	327.682
96.5000	328.026
97.0000	328.31
97.5000	328.594
98.0000	328.932
98.5000	329.241
99.0000	329.674
99.5000	329.994
100.0000	330.33
100.5000	330.691
101.0000	330.97
101.5000	331.353
102.0000	331.681
102.5000	332
103.0000	332.327
103.5000	332.673
104.0000	332.981
104.5000	333.346
105.0000	333.696
105.5000	334.046
106.0000	334.396
106.5000	334.667
107.0000	334.96
107.5000	335.258
108.0000	335.593
108.5000	335.936
109.0000	336.3
109.5000	336.611
110.0000	336.861
110.5000	337.162
111.0000	337.495
111.5000	337.787
112.0000	338.177
112.5000	338.522
113.0000	338.757
113.5000	339.118
114.0000	339.38
114.5000	339.695
115.0000	340.094
115.5000	340.354
116.0000	340.706
116.5000	341.042
117.0000	341.339
117.5000	341.672
118.0000	341.985
118.5000	342.325
119.0000	342.62
119.5000	342.964
120.0000	343.312
120.5000	343.609
121.0000	343.902
121.5000	344.198
122.0000	344.484
122.5000	344.762
123.0000	345.104
123.5000	345.434
124.0000	345.744
124.5000	346.073
125.0000	346.409
125.5000	346.664
126.0000	346.989
126.5000	347.303
127.0000	347.574
127.5000	347.951
128.0000	348.298
128.5000	348.625
129.0000	348.953
129.5000	349.274
130.0000	349.548
130.5000	349.803
131.0000	350.056
131.5000	350.338
132.0000	350.657
132.5000	350.998
133.0000	351.301
133.5000	351.565
134.0000	351.787
134.5000	352.055
135.0000	352.375
135.5000	352.654
136.0000	353.003
136.5000	353.342
137.0000	353.688
137.5000	354.006
138.0000	354.299
138.5000	354.585
139.0000	354.869
139.5000	355.2
140.0000	355.502
140.5000	355.823
141.0000	356.115
141.5000	356.416
142.0000	356.714
142.5000	356.972
143.0000	357.308
143.5000	357.596
144.0000	357.857
144.5000	358.147
145.0000	358.378
145.5000	358.624
146.0000	358.931
146.5000	359.215
147.0000	359.483
147.5000	359.758
148.0000	360.055
148.5000	360.349
149.0000	360.653
149.5000	360.947
150.0000	361.192
150.5000	361.417
151.0000	361.658
151.5000	361.933
152.0000	362.194
152.5000	362.519
153.0000	362.809
153.5000	363.07
154.0000	363.388
154.5000	363.637
155.0000	363.915
155.5000	364.206
156.0000	364.492
156.5000	364.789
157.0000	365.104
157.5000	365.378
158.0000	365.65
158.5000	365.906
159.0000	366.134
159.5000	366.446
160.0000	366.735
160.5000	366.988
161.0000	367.294
161.5000	367.516
162.0000	367.747
162.5000	367.995
163.0000	368.258
163.5000	368.53
164.0000	368.823
164.5000	369.129
165.0000	369.388
165.5000	369.665
166.0000	369.916
166.5000	370.158
167.0000	370.437
167.5000	370.674
168.0000	370.904
168.5000	371.196
169.0000	371.43
169.5000	371.696
170.0000	371.947
170.5000	372.188
171.0000	372.448
171.5000	372.686
172.0000	372.971
172.5000	373.269
173.0000	373.508
173.5000	373.774
174.0000	374.064
174.5000	374.342
175.0000	374.592
175.5000	374.87
176.0000	375.145
176.5000	375.358
177.0000	375.626
177.5000	375.926
178.0000	376.168
178.5000	376.39
179.0000	376.618
179.5000	376.862
180.0000	377.108
180.5000	377.407
181.0000	377.735
181.5000	377.911
182.0000	378.137
182.5000	378.422
183.0000	378.633
183.5000	378.967
184.0000	379.271
184.5000	379.473
185.0000	379.746
185.5000	379.934
186.0000	380.137
186.5000	380.328
187.0000	380.589
187.5000	380.809
188.0000	381.019
188.5000	381.313
189.0000	381.587
189.5000	381.879
190.0000	382.166
190.5000	382.386
191.0000	382.551
191.5000	382.79
192.0000	383.019
192.5000	383.286
193.0000	383.508
193.5000	383.778
194.0000	384.027
194.5000	384.256
195.0000	384.503
195.5000	384.703
196.0000	384.907
196.5000	385.126
197.0000	385.386
197.5000	385.654
198.0000	385.871
198.5000	386.125
199.0000	386.305
199.5000	386.555
200.0000	386.772
200.5000	387.009
201.0000	387.29
201.5000	387.414
202.0000	387.687
202.5000	387.89
203.0000	388.104
203.5000	388.41
204.0000	388.687
204.5000	388.937
205.0000	389.189
205.5000	389.432
206.0000	389.647
206.5000	389.896
207.0000	390.123
207.5000	390.385
208.0000	390.594
208.5000	390.814
209.0000	391.058
209.5000	391.243
210.0000	391.516
210.5000	391.794
211.0000	391.963
211.5000	392.192
212.0000	392.337
212.5000	392.507
213.0000	392.815
213.5000	393.116
214.0000	393.411
214.5000	393.719
215.0000	393.889
215.5000	394.055
216.0000	394.231
216.5000	394.406
217.0000	394.639
217.5000	394.865
218.0000	395.09
218.5000	395.312
219.0000	395.521
219.5000	395.743
220.0000	395.977
220.5000	396.159
221.0000	396.385
221.5000	396.593
222.0000	396.801
222.5000	397.023
223.0000	397.224
223.5000	397.374
224.0000	397.591
224.5000	397.783
225.0000	398.023
225.5000	398.289
226.0000	398.485
226.5000	398.724
227.0000	398.994
227.5000	399.276
228.0000	399.493
228.5000	399.747
229.0000	399.905
229.5000	400.079
230.0000	400.281
230.5000	400.446
231.0000	400.704
231.5000	400.899
232.0000	401.147
232.5000	401.372
233.0000	401.589
233.5000	401.776
234.0000	401.961
234.5000	402.227
235.0000	402.457
235.5000	402.65
236.0000	402.928
236.5000	403.112
237.0000	403.244
237.5000	403.485
238.0000	403.61
238.5000	403.849
239.0000	404.121
239.5000	404.34
240.0000	404.626
240.5000	404.846
241.0000	404.967
241.5000	405.21
242.0000	405.405
242.5000	405.53
243.0000	405.774
243.5000	405.953
244.0000	406.138
244.5000	406.332
245.0000	406.525
245.5000	406.69
246.0000	406.893
246.5000	407.098
247.0000	407.316
247.5000	407.563
248.0000	407.783
248.5000	408.089
249.0000	408.298
249.5000	408.493
250.0000	408.708
250.5000	408.834
251.0000	409.012
251.5000	409.234
252.0000	409.438
252.5000	409.638
253.0000	409.889
253.5000	410.096
254.0000	410.27
254.5000	410.474
255.0000	410.617
255.5000	410.776
256.0000	410.964
256.5000	411.178
257.0000	411.392
257.5000	411.62
258.0000	411.812
258.5000	412.01
259.0000	412.228
259.5000	412.387
260.0000	412.602
260.5000	412.794
261.0000	412.974
261.5000	413.163
262.0000	413.357
262.5000	413.568
263.0000	413.752
263.5000	413.954
264.0000	414.125
264.5000	414.316
265.0000	414.508
265.5000	414.626
266.0000	414.773
266.5000	415.005
267.0000	415.211
267.5000	415.545
268.0000	415.741
268.5000	415.87
269.0000	416.068
269.5000	416.216
270.0000	416.448
270.5000	416.626
271.0000	416.839
271.5000	416.974
272.0000	417.172
272.5000	417.375
273.0000	417.546
273.5000	417.86
274.0000	418.044
274.5000	418.206
275.0000	418.328
275.5000	418.406
276.0000	418.598
276.5000	418.782
277.0000	419.053
277.5000	419.284
278.0000	419.503
278.5000	419.741
279.0000	419.882
279.5000	420.135
280.0000	420.289
280.5000	420.494
281.0000	420.711
281.5000	420.814
282.0000	421.001
282.5000	421.115
283.0000	421.296
283.5000	421.477
284.0000	421.668
284.5000	421.889
285.0000	422.054
285.5000	422.212
286.0000	422.375
286.5000	422.57
287.0000	422.751
287.5000	423.005
288.0000	423.191
288.5000	423.292
289.0000	423.479
289.5000	423.594
290.0000	423.726
290.5000	423.957
291.0000	424.156
291.5000	424.372
292.0000	424.607
292.5000	424.763
293.0000	424.936
293.5000	425.095
294.0000	425.248
294.5000	425.438
295.0000	425.571
295.5000	425.72
296.0000	425.955
296.5000	426.116
297.0000	426.312
297.5000	426.505
298.0000	426.604
298.5000	426.766
299.0000	426.926
299.5000	427.104
300.0000	427.316
300.5000	427.536
301.0000	427.654
301.5000	427.777
302.0000	427.943
302.5000	428.101
303.0000	428.325
303.5000	428.51
304.0000	428.71
304.5000	428.871
305.0000	429.055
305.5000	429.255
306.0000	429.372
306.5000	429.555
307.0000	429.712
307.5000	429.912
308.0000	430.132
308.5000	430.325
309.0000	430.531
309.5000	430.69
310.0000	430.843
310.5000	430.957
311.0000	431.078
311.5000	431.252
312.0000	431.402
312.5000	431.644
313.0000	431.794
313.5000	431.877
314.0000	432.036
314.5000	432.197
315.0000	432.4
315.5000	432.642
316.0000	432.849
316.5000	433.032
317.0000	433.217
317.5000	433.319
318.0000	433.441
318.5000	433.581
319.0000	433.728
319.5000	433.947
320.0000	434.118
320.5000	434.35
321.0000	434.517
321.5000	434.604
322.0000	434.792
322.5000	434.883
323.0000	435.01
323.5000	435.25
324.0000	435.345
324.5000	435.525
325.0000	435.658
325.5000	435.736
326.0000	435.963
326.5000	436.115
327.0000	436.371
327.5000	436.617
328.0000	436.793
328.5000	436.937
329.0000	437.033
329.5000	437.225
330.0000	437.336
330.5000	437.461
331.0000	437.62
331.5000	437.724
332.0000	437.945
332.5000	438.124
333.0000	438.296
333.5000	438.419
334.0000	438.481
334.5000	438.653
335.0000	438.822
335.5000	439.05
336.0000	439.236
336.5000	439.424
337.0000	439.609
337.5000	439.728
338.0000	439.919
338.5000	440.049
339.0000	440.173
339.5000	440.358
340.0000	440.511
340.5000	440.665
341.0000	440.829
341.5000	440.953
342.0000	441.118
342.5000	441.291
343.0000	441.388
343.5000	441.549
344.0000	441.723
344.5000	441.888
345.0000	442.139
345.5000	442.341
346.0000	442.423
346.5000	442.51
347.0000	442.595
347.5000	442.723
348.0000	442.89
348.5000	443.085
349.0000	443.295
349.5000	443.461
350.0000	443.617
350.5000	443.743
351.0000	443.897
351.5000	444.061
352.0000	444.24
352.5000	444.485
353.0000	444.602
353.5000	444.719
354.0000	444.823
354.5000	444.919
355.0000	445.081
355.5000	445.222
356.0000	445.479
356.5000	445.562
357.0000	445.743
357.5000	445.869
358.0000	445.975
358.5000	446.135
359.0000	446.255
359.5000	446.457
360.0000	446.602
360.5000	446.812
361.0000	446.926
361.5000	446.985
362.0000	447.19
362.5000	447.335
363.0000	447.504
363.5000	447.763
364.0000	447.836
364.5000	447.92
365.0000	448.068
365.5000	448.188
366.0000	448.309
366.5000	448.544
367.0000	448.67
367.5000	448.773
368.0000	448.934
368.5000	449.019
369.0000	449.127
369.5000	449.325
370.0000	449.44
370.5000	449.549
371.0000	449.739
371.5000	449.85
372.0000	449.984
372.5000	450.15
373.0000	450.241
373.5000	450.399
374.0000	450.564
374.5000	450.609
375.0000	450.791
375.5000	450.843
376.0000	450.993
376.5000	451.256
377.0000	451.412
377.5000	451.658
378.0000	451.779
378.5000	451.915
379.0000	452.062
379.5000	452.133
380.0000	452.284
380.5000	452.403
381.0000	452.53
381.5000	452.654
382.0000	452.792
382.5000	452.931
383.0000	453.042
383.5000	453.189
384.0000	453.291
384.5000	453.38
385.0000	453.498
385.5000	453.633
386.0000	453.776
386.5000	453.82
387.0000	453.953
387.5000	454.133
388.0000	454.268
388.5000	454.538
389.0000	454.644
389.5000	454.727
390.0000	454.877
390.5000	455.005
391.0000	455.248
391.5000	455.382
392.0000	455.466
392.5000	455.56
393.0000	455.596
393.5000	455.682
394.0000	455.871
394.5000	456.036
395.0000	456.171
395.5000	456.396
396.0000	456.462
396.5000	456.57
397.0000	456.726
397.5000	456.789
398.0000	456.921
398.5000	457.002
399.0000	457.115
399.5000	457.247
400.0000	457.393
400.5000	457.539
401.0000	457.631
401.5000	457.775
402.0000	457.867
402.5000	458.027
403.0000	458.124
403.5000	458.186
404.0000	458.322
404.5000	458.445
405.0000	458.618
405.5000	458.849
406.0000	458.93
406.5000	459.015
407.0000	459.129
407.5000	459.174
408.0000	459.374
408.5000	459.504
409.0000	459.622
409.5000	459.792
410.0000	459.848
410.5000	460.011
411.0000	460.178
411.5000	460.212
412.0000	460.357
412.5000	460.456
413.0000	460.554
413.5000	460.672
414.0000	460.77
414.5000	460.874
415.0000	460.975
415.5000	461.206
416.0000	461.333
416.5000	461.417
417.0000	461.546
417.5000	461.612
418.0000	461.798
418.5000	462.011
419.0000	462.093
419.5000	462.22
420.0000	462.368
420.5000	462.354
421.0000	462.55
421.5000	462.692
422.0000	462.683
422.5000	462.815
423.0000	462.913
423.5000	462.985
424.0000	463.143
424.5000	463.321
425.0000	463.458
425.5000	463.644
426.0000	463.756
426.5000	463.896
427.0000	463.982
427.5000	464.039
428.0000	464.246
428.5000	464.405
429.0000	464.554
429.5000	464.711
430.0000	464.809
430.5000	464.888
431.0000	465.022
431.5000	465.107
432.0000	465.19
432.5000	465.32
433.0000	465.342
433.5000	465.429
434.0000	465.585
434.5000	465.688
435.0000	465.888
435.5000	466.014
436.0000	466.089
436.5000	466.192
437.0000	466.3
437.5000	466.416
438.0000	466.485
438.5000	466.623
439.0000	466.647
439.5000	466.793
440.0000	466.889
440.5000	466.987
441.0000	467.133
441.5000	467.255
442.0000	467.454
442.5000	467.53
443.0000	467.67
443.5000	467.697
444.0000	467.735
444.5000	467.858
445.0000	467.961
445.5000	468.052
446.0000	468.167
446.5000	468.297
447.0000	468.355
447.5000	468.519
448.0000	468.614
448.5000	468.701
449.0000	468.867
449.5000	468.928
450.0000	469.011
450.5000	469.1
451.0000	469.146
451.5000	469.279
452.0000	469.421
452.5000	469.512
453.0000	469.607
453.5000	469.736
454.0000	469.829
454.5000	469.949
455.0000	470.076
455.5000	470.142
456.0000	470.182
456.5000	470.296
457.0000	470.331
457.5000	470.502
458.0000	470.698
458.5000	470.823
459.0000	471.005
459.5000	471.061
460.0000	471.144
460.5000	471.154
461.0000	471.25
461.5000	471.375
462.0000	471.551
462.5000	471.709
463.0000	471.838
463.5000	471.916
464.0000	471.914
464.5000	472.02
465.0000	472.129
465.5000	472.243
466.0000	472.378
466.5000	472.516
467.0000	472.623
467.5000	472.777
468.0000	472.84
468.5000	472.944
469.0000	473.066
469.5000	473.086
470.0000	473.283
470.5000	473.351
471.0000	473.393
471.5000	473.49
472.0000	473.498
472.5000	473.616
473.0000	473.71
473.5000	473.826
474.0000	474.023
474.5000	474.16
475.0000	474.273
475.5000	474.434
476.0000	474.449
476.5000	474.527
477.0000	474.61
477.5000	474.664
478.0000	474.737
478.5000	474.801
479.0000	474.923
479.5000	475.009
480.0000	475.186
480.5000	475.294
481.0000	475.369
481.5000	475.492
482.0000	475.529
482.5000	475.585
483.0000	475.825
483.5000	475.936
484.0000	476.014
484.5000	476.145
485.0000	476.141
485.5000	476.234
486.0000	476.399
486.5000	476.494
487.0000	476.6
487.5000	476.706
488.0000	476.836
488.5000	476.949
489.0000	476.903
489.5000	476.904
490.0000	476.979
490.5000	476.995
491.0000	477.197
491.5000	477.422
492.0000	477.447
492.5000	477.568
493.0000	477.646
493.5000	477.695
494.0000	477.805
494.5000	477.908
495.0000	478.044
495.5000	478.116
496.0000	478.257
496.5000	478.315
497.0000	478.395
497.5000	478.535
498.0000	478.631
498.5000	478.713
499.0000	478.785
499.5000	478.802
500.0000	478.905
500.5000	479.018
501.0000	479.149
501.5000	479.241
502.0000	479.235
502.5000	479.317
503.0000	479.389
503.5000	479.454
504.0000	479.615
504.5000	479.749
505.0000	479.823
505.5000	479.994
506.0000	480.004
506.5000	480.077
507.0000	480.169
507.5000	480.21
508.0000	480.36
508.5000	480.479
509.0000	480.613
509.5000	480.632
510.0000	480.749
510.5000	480.815
511.0000	480.888
511.5000	481.047
512.0000	481.092
512.5000	481.138
513.0000	481.12
513.5000	481.179
514.0000	481.255
514.5000	481.367
515.0000	481.508
515.5000	481.605
516.0000	481.705
516.5000	481.824
517.0000	481.953
517.5000	482.071
518.0000	482.132
518.5000	482.204
519.0000	482.259
519.5000	482.306
520.0000	482.415
520.5000	482.428
521.0000	482.536
521.5000	482.629
522.0000	482.676
522.5000	482.895
523.0000	482.949
523.5000	483.037
524.0000	483.117
524.5000	483.084
525.0000	483.118
525.5000	483.186
526.0000	483.292
526.5000	483.373
527.0000	483.502
527.5000	483.572
528.0000	483.633
528.5000	483.755
529.0000	483.802
529.5000	483.879
530.0000	483.967
530.5000	484.095
531.0000	484.216
531.5000	484.31
532.0000	484.364
532.5000	484.408
533.0000	484.454
533.5000	484.433
534.0000	484.571
534.5000	484.632
535.0000	484.676
535.5000	484.84
536.0000	484.914
536.5000	484.952
537.0000	485.119
537.5000	485.204
538.0000	485.25
538.5000	485.393
539.0000	485.411
539.5000	485.546
540.0000	485.639
540.5000	485.717
541.0000	485.807
541.5000	485.802
542.0000	485.831
542.5000	485.899
543.0000	485.997
543.5000	486.141
544.0000	486.288
544.5000	486.373
545.0000	486.402
545.5000	486.433
546.0000	486.516
546.5000	486.567
547.0000	486.698
547.5000	486.852
548.0000	486.923
548.5000	487.021
549.0000	487.07
549.5000	487.082
550.0000	487.101
550.5000	487.155
551.0000	487.246
551.5000	487.315
552.0000	487.515
552.5000	487.599
553.0000	487.636
553.5000	487.731
554.0000	487.759
554.5000	487.861
555.0000	487.933
555.5000	487.99
556.0000	488.154
556.5000	488.206
