TITLE	
DATA TYPE	
ORIGIN	JASCO
OWNER	
DATE	22/08/25
TIME	10:48:38
SPECTROMETER/DATA SYSTEM	
RESOLUTION	
DELTAX	0.5
XUNITS	SEC
YUNITS	INTENSITY
FIRSTX	0.0000
LASTX	1570.5000
NPOINTS	3142
FIRSTY	352.40616
MAXY	376.02350
MINY	-103.63776
XYDATA
0.0000	352.406
0.5000	352.354
1.0000	352.3
1.5000	352.2
2.0000	352.221
2.5000	352.22
3.0000	352.192
3.5000	352.211
4.0000	352.207
4.5000	352.125
5.0000	352.15
5.5000	352.073
6.0000	351.985
6.5000	351.988
7.0000	351.947
7.5000	351.982
8.0000	351.979
8.5000	351.934
9.0000	351.923
9.5000	351.89
10.0000	351.881
10.5000	351.888
11.0000	351.739
11.5000	351.705
12.0000	351.63
12.5000	351.534
13.0000	351.605
13.5000	351.558
14.0000	351.517
14.5000	351.513
15.0000	351.493
15.5000	351.44
16.0000	351.422
16.5000	351.354
17.0000	351.254
17.5000	351.21
18.0000	351.187
18.5000	351.169
19.0000	351.166
19.5000	351.16
20.0000	351.157
20.5000	351.068
21.0000	350.982
21.5000	350.94
22.0000	350.816
22.5000	350.868
23.0000	350.855
23.5000	350.836
24.0000	350.825
24.5000	350.742
25.0000	350.738
25.5000	346.929
26.0000	335.332
26.5000	315.612
27.0000	250.479
27.5000	-103.638
28.0000	-46.2121
28.5000	-35.2514
29.0000	-32.2171
29.5000	-30.773
30.0000	-29.8864
30.5000	-29.2055
31.0000	-28.9042
31.5000	-28.5175
32.0000	-28.2653
32.5000	-28.1481
33.0000	-27.7447
33.5000	-27.5176
34.0000	-27.3054
34.5000	-26.9593
35.0000	-26.8305
35.5000	226.204
36.0000	200.415
36.5000	194.548
37.0000	191.866
37.5000	175.188
38.0000	175.116
38.5000	175.125
39.0000	175.277
39.5000	175.495
40.0000	175.768
40.5000	176.117
41.0000	176.436
41.5000	176.76
42.0000	177.029
42.5000	177.323
43.0000	177.634
43.5000	177.922
44.0000	178.248
44.5000	178.543
45.0000	178.86
45.5000	179.224
46.0000	179.52
46.5000	179.806
47.0000	180.077
47.5000	180.332
48.0000	180.633
48.5000	180.947
49.0000	181.247
49.5000	181.543
50.0000	181.854
50.5000	182.111
51.0000	182.407
51.5000	182.686
52.0000	182.955
52.5000	183.267
53.0000	183.597
53.5000	183.898
54.0000	184.188
54.5000	184.474
55.0000	184.729
55.5000	185.019
56.0000	185.324
56.5000	185.594
57.0000	185.846
57.5000	186.131
58.0000	186.383
58.5000	186.651
59.0000	186.948
59.5000	187.209
60.0000	187.457
60.5000	187.783
61.0000	188.081
61.5000	188.39
62.0000	188.73
62.5000	188.995
63.0000	189.234
63.5000	189.49
64.0000	189.76
64.5000	190.011
65.0000	190.321
65.5000	190.59
66.0000	190.85
66.5000	191.148
67.0000	191.425
67.5000	191.713
68.0000	192.004
68.5000	192.26
69.0000	192.544
69.5000	192.85
70.0000	193.104
70.5000	193.404
71.0000	193.654
71.5000	193.868
72.0000	194.144
72.5000	194.396
73.0000	194.659
73.5000	194.955
74.0000	195.252
74.5000	195.513
75.0000	195.797
75.5000	196.077
76.0000	196.339
76.5000	196.612
77.0000	196.864
77.5000	197.096
78.0000	197.344
78.5000	197.634
79.0000	197.916
79.5000	198.164
80.0000	198.441
80.5000	198.658
81.0000	198.922
81.5000	199.195
82.0000	199.409
82.5000	199.676
83.0000	199.932
83.5000	200.201
84.0000	200.473
84.5000	200.768
85.0000	201.033
85.5000	201.296
86.0000	201.571
86.5000	201.787
87.0000	202.019
87.5000	202.286
88.0000	202.513
88.5000	202.782
89.0000	203.055
89.5000	203.294
90.0000	203.561
90.5000	203.836
91.0000	204.084
91.5000	204.335
92.0000	204.619
92.5000	204.879
93.0000	205.132
93.5000	205.413
94.0000	205.635
94.5000	205.874
95.0000	206.131
95.5000	206.36
96.0000	206.612
96.5000	206.845
97.0000	207.083
97.5000	207.34
98.0000	207.63
98.5000	207.908
99.0000	208.18
99.5000	208.44
100.0000	208.694
100.5000	208.946
101.0000	209.182
101.5000	209.429
102.0000	209.645
102.5000	209.872
103.0000	210.115
103.5000	210.351
104.0000	210.627
104.5000	210.884
105.0000	211.107
105.5000	211.375
106.0000	211.577
106.5000	211.829
107.0000	212.114
107.5000	212.328
108.0000	212.591
108.5000	212.829
109.0000	213.082
109.5000	213.316
110.0000	213.538
110.5000	213.782
111.0000	214.009
111.5000	214.273
112.0000	214.511
112.5000	214.698
113.0000	214.936
113.5000	215.162
114.0000	215.395
114.5000	215.657
115.0000	215.891
115.5000	216.141
116.0000	216.392
116.5000	216.654
117.0000	216.897
117.5000	217.14
118.0000	217.367
118.5000	217.581
119.0000	217.797
119.5000	218.023
120.0000	218.236
120.5000	218.462
121.0000	218.699
121.5000	218.917
122.0000	219.173
122.5000	219.389
123.0000	219.626
123.5000	219.875
124.0000	220.098
124.5000	220.334
125.0000	220.542
125.5000	220.717
126.0000	220.951
126.5000	221.2
127.0000	221.429
127.5000	221.676
128.0000	221.884
128.5000	222.106
129.0000	222.323
129.5000	222.558
130.0000	222.778
130.5000	222.993
131.0000	223.203
131.5000	223.423
132.0000	223.688
132.5000	223.911
133.0000	224.17
133.5000	224.374
134.0000	224.581
134.5000	224.835
135.0000	225.035
135.5000	225.248
136.0000	225.484
136.5000	225.67
137.0000	225.894
137.5000	226.115
138.0000	226.332
138.5000	226.548
139.0000	226.769
139.5000	227
140.0000	227.179
140.5000	227.406
141.0000	227.639
141.5000	227.861
142.0000	228.08
142.5000	228.296
143.0000	228.512
143.5000	228.75
144.0000	228.966
144.5000	229.162
145.0000	229.365
145.5000	229.512
146.0000	229.715
146.5000	229.929
147.0000	230.1
147.5000	230.33
148.0000	230.559
148.5000	230.786
149.0000	231.012
149.5000	231.225
150.0000	231.384
150.5000	231.565
151.0000	231.78
151.5000	231.985
152.0000	232.247
152.5000	232.468
153.0000	232.706
153.5000	232.962
154.0000	233.16
154.5000	233.384
155.0000	233.556
155.5000	233.725
156.0000	233.93
156.5000	234.092
157.0000	234.287
157.5000	234.462
158.0000	234.642
158.5000	234.875
159.0000	235.091
159.5000	235.32
160.0000	235.533
160.5000	235.735
161.0000	235.942
161.5000	236.147
162.0000	236.323
162.5000	236.553
163.0000	236.739
163.5000	236.932
164.0000	237.187
164.5000	237.319
165.0000	237.555
165.5000	237.782
166.0000	237.983
166.5000	238.211
167.0000	238.389
167.5000	238.564
168.0000	238.725
168.5000	238.892
169.0000	239.063
169.5000	239.217
170.0000	239.425
170.5000	239.658
171.0000	239.864
171.5000	240.109
172.0000	240.3
172.5000	240.49
173.0000	240.674
173.5000	240.85
174.0000	241.052
174.5000	241.226
175.0000	241.458
175.5000	241.61
176.0000	241.784
176.5000	241.999
177.0000	242.195
177.5000	242.427
178.0000	242.591
178.5000	242.728
179.0000	242.835
179.5000	243.025
180.0000	243.24
180.5000	243.465
181.0000	243.68
181.5000	243.826
182.0000	244.015
182.5000	244.214
183.0000	244.392
183.5000	244.607
184.0000	244.749
184.5000	244.881
185.0000	245.104
185.5000	245.302
186.0000	245.478
186.5000	245.65
187.0000	245.806
187.5000	245.979
188.0000	246.201
188.5000	246.44
189.0000	246.603
189.5000	246.77
190.0000	246.925
190.5000	247.081
191.0000	247.284
191.5000	247.431
192.0000	247.657
192.5000	247.819
193.0000	247.995
193.5000	248.225
194.0000	248.349
194.5000	248.513
195.0000	248.707
195.5000	248.89
196.0000	249.098
196.5000	249.296
197.0000	249.419
197.5000	249.548
198.0000	249.703
198.5000	249.889
199.0000	250.092
199.5000	250.281
200.0000	250.463
200.5000	250.629
201.0000	250.82
201.5000	250.962
202.0000	251.137
202.5000	251.322
203.0000	251.488
203.5000	251.703
204.0000	251.884
204.5000	252.037
205.0000	252.188
205.5000	252.329
206.0000	252.495
206.5000	252.685
207.0000	252.844
207.5000	253.061
208.0000	253.247
208.5000	253.46
209.0000	253.695
209.5000	253.831
210.0000	254.018
210.5000	254.195
211.0000	254.374
211.5000	254.562
212.0000	254.688
212.5000	254.813
213.0000	254.943
213.5000	255.122
214.0000	255.282
214.5000	255.476
215.0000	255.648
215.5000	255.818
216.0000	256.002
216.5000	256.193
217.0000	256.372
217.5000	256.563
218.0000	256.748
218.5000	256.894
219.0000	257.053
219.5000	257.152
220.0000	257.284
220.5000	257.437
221.0000	257.568
221.5000	257.811
222.0000	257.991
222.5000	258.107
223.0000	258.293
223.5000	258.44
224.0000	258.596
224.5000	258.795
225.0000	258.959
225.5000	259.105
226.0000	259.256
226.5000	259.381
227.0000	259.542
227.5000	259.697
228.0000	259.876
228.5000	260.073
229.0000	260.2
229.5000	260.384
230.0000	260.565
230.5000	260.72
231.0000	260.943
231.5000	261.096
232.0000	261.262
232.5000	261.372
233.0000	261.471
233.5000	261.626
234.0000	261.777
234.5000	261.974
235.0000	262.096
235.5000	262.223
236.0000	262.355
236.5000	262.514
237.0000	262.713
237.5000	262.888
238.0000	263.059
238.5000	263.199
239.0000	263.373
239.5000	263.5
240.0000	263.609
240.5000	263.773
241.0000	263.916
241.5000	264.052
242.0000	264.217
242.5000	264.379
243.0000	264.517
243.5000	264.689
244.0000	264.874
244.5000	265.021
245.0000	265.197
245.5000	265.316
246.0000	265.492
246.5000	265.654
247.0000	265.766
247.5000	265.949
248.0000	266.08
248.5000	266.207
249.0000	266.358
249.5000	266.507
250.0000	266.594
250.5000	266.733
251.0000	266.914
251.5000	267.09
252.0000	267.293
252.5000	267.449
253.0000	267.63
253.5000	267.718
254.0000	267.852
254.5000	268.023
255.0000	268.141
255.5000	268.305
256.0000	268.436
256.5000	268.553
257.0000	268.695
257.5000	268.854
258.0000	268.979
258.5000	269.136
259.0000	269.297
259.5000	269.478
260.0000	269.642
260.5000	269.79
261.0000	269.931
261.5000	270.03
262.0000	270.19
262.5000	270.361
263.0000	270.474
263.5000	270.627
264.0000	270.763
264.5000	270.913
265.0000	271.061
265.5000	271.213
266.0000	271.349
266.5000	271.461
267.0000	271.617
267.5000	271.69
268.0000	271.833
268.5000	271.927
269.0000	272.048
269.5000	272.256
270.0000	272.376
270.5000	272.509
271.0000	272.648
271.5000	272.748
272.0000	272.899
272.5000	273.112
273.0000	273.224
273.5000	273.346
274.0000	273.461
274.5000	273.558
275.0000	273.69
275.5000	273.867
276.0000	274.054
276.5000	274.185
277.0000	274.296
277.5000	274.445
278.0000	274.571
278.5000	274.672
279.0000	274.89
279.5000	274.966
280.0000	275.064
280.5000	275.192
281.0000	275.292
281.5000	275.465
282.0000	275.603
282.5000	275.774
283.0000	275.893
283.5000	276.072
284.0000	276.211
284.5000	276.36
285.0000	276.532
285.5000	276.611
286.0000	276.755
286.5000	276.884
287.0000	276.988
287.5000	277.133
288.0000	277.28
288.5000	277.373
289.0000	277.517
289.5000	277.603
290.0000	277.717
290.5000	277.882
291.0000	278.006
291.5000	278.137
292.0000	278.227
292.5000	278.327
293.0000	278.448
293.5000	278.606
294.0000	278.773
294.5000	278.894
295.0000	279.034
295.5000	279.131
296.0000	279.262
296.5000	279.411
297.0000	279.472
297.5000	279.607
298.0000	279.72
298.5000	279.82
299.0000	279.978
299.5000	280.124
300.0000	280.268
300.5000	280.402
301.0000	280.525
301.5000	280.588
302.0000	280.648
302.5000	280.754
303.0000	280.898
303.5000	281.081
304.0000	281.231
304.5000	281.361
305.0000	281.492
305.5000	281.591
306.0000	281.718
306.5000	281.87
307.0000	281.921
307.5000	282.003
308.0000	282.129
308.5000	282.231
309.0000	282.406
309.5000	282.581
310.0000	282.72
310.5000	282.838
311.0000	282.955
311.5000	283.053
312.0000	283.17
312.5000	283.288
313.0000	283.391
313.5000	283.531
314.0000	283.609
314.5000	283.708
315.0000	283.852
315.5000	283.944
316.0000	284.046
316.5000	284.158
317.0000	284.238
317.5000	284.353
318.0000	284.502
318.5000	284.646
319.0000	284.798
319.5000	284.92
320.0000	285.075
320.5000	285.169
321.0000	285.261
321.5000	285.304
322.0000	285.377
322.5000	285.5
323.0000	285.629
323.5000	285.846
324.0000	285.955
324.5000	286.111
325.0000	286.252
325.5000	286.323
326.0000	286.444
326.5000	286.541
327.0000	286.639
327.5000	286.755
328.0000	286.879
328.5000	286.985
329.0000	287.091
329.5000	287.235
330.0000	287.306
330.5000	287.38
331.0000	287.494
331.5000	287.635
332.0000	287.791
332.5000	287.93
333.0000	288.029
333.5000	288.12
334.0000	288.197
334.5000	288.311
335.0000	288.448
335.5000	288.574
336.0000	288.645
336.5000	288.744
337.0000	288.819
337.5000	288.913
338.0000	289.054
338.5000	289.182
339.0000	289.328
339.5000	289.432
340.0000	289.578
340.5000	289.658
341.0000	289.734
341.5000	289.827
342.0000	289.933
342.5000	290.071
343.0000	290.217
343.5000	290.323
344.0000	290.417
344.5000	290.512
345.0000	290.606
345.5000	290.695
346.0000	290.801
346.5000	290.914
347.0000	290.99
347.5000	291.113
348.0000	291.241
348.5000	291.327
349.0000	291.44
349.5000	291.54
350.0000	291.645
350.5000	291.725
351.0000	291.826
351.5000	291.931
352.0000	292.027
352.5000	292.171
353.0000	292.259
353.5000	292.361
354.0000	292.467
354.5000	292.572
355.0000	292.711
355.5000	292.798
356.0000	292.917
356.5000	292.939
357.0000	292.998
357.5000	293.142
358.0000	293.189
358.5000	293.351
359.0000	293.503
359.5000	293.585
360.0000	293.684
360.5000	293.809
361.0000	293.858
361.5000	293.929
362.0000	294.073
362.5000	294.144
363.0000	294.294
363.5000	294.419
364.0000	294.486
364.5000	294.638
365.0000	294.736
365.5000	294.819
366.0000	294.921
366.5000	294.989
367.0000	295.052
367.5000	295.172
368.0000	295.285
368.5000	295.383
369.0000	295.489
369.5000	295.586
370.0000	295.68
370.5000	295.738
371.0000	295.825
371.5000	295.936
372.0000	296.109
372.5000	296.237
373.0000	296.328
373.5000	296.413
374.0000	296.464
374.5000	296.589
375.0000	296.651
375.5000	296.721
376.0000	296.798
376.5000	296.856
377.0000	297.002
377.5000	297.163
378.0000	297.235
378.5000	297.331
379.0000	297.414
379.5000	297.451
380.0000	297.609
380.5000	297.737
381.0000	297.81
381.5000	297.905
382.0000	297.98
382.5000	298.069
383.0000	298.154
383.5000	298.233
384.0000	298.247
384.5000	298.318
385.0000	298.455
385.5000	298.571
386.0000	298.738
386.5000	298.825
387.0000	298.928
387.5000	299.013
388.0000	299.109
388.5000	299.24
389.0000	299.312
389.5000	299.378
390.0000	299.45
390.5000	299.495
391.0000	299.574
391.5000	299.746
392.0000	299.817
392.5000	299.866
393.0000	300.019
393.5000	300.046
394.0000	300.103
394.5000	300.219
395.0000	300.297
395.5000	300.386
396.0000	300.498
396.5000	300.673
397.0000	300.77
397.5000	300.852
398.0000	300.938
398.5000	300.996
399.0000	301.025
399.5000	301.128
400.0000	301.234
400.5000	301.295
401.0000	301.391
401.5000	301.475
402.0000	301.581
402.5000	301.701
403.0000	301.793
403.5000	301.866
404.0000	301.931
404.5000	301.987
405.0000	302.068
405.5000	302.143
406.0000	302.272
406.5000	302.35
407.0000	302.47
407.5000	302.609
408.0000	302.653
408.5000	302.744
409.0000	302.779
409.5000	302.843
410.0000	302.899
410.5000	302.961
411.0000	303.088
411.5000	303.176
412.0000	303.317
412.5000	303.395
413.0000	303.447
413.5000	303.526
414.0000	303.588
414.5000	303.722
415.0000	303.837
415.5000	303.953
416.0000	304.089
416.5000	304.13
417.0000	304.202
417.5000	304.257
418.0000	304.304
418.5000	304.441
419.0000	304.482
419.5000	304.579
420.0000	304.672
420.5000	304.717
421.0000	304.874
421.5000	304.889
422.0000	304.965
422.5000	305.029
423.0000	305.08
423.5000	305.199
424.0000	305.265
424.5000	305.36
425.0000	305.463
425.5000	305.567
426.0000	305.628
426.5000	305.733
427.0000	305.813
427.5000	305.878
428.0000	305.936
428.5000	306.031
429.0000	306.092
429.5000	306.208
430.0000	306.333
430.5000	306.354
431.0000	306.48
431.5000	306.495
432.0000	306.559
432.5000	306.617
433.0000	306.68
433.5000	306.785
434.0000	306.848
434.5000	306.984
435.0000	307.019
435.5000	307.083
436.0000	307.157
436.5000	307.228
437.0000	307.298
437.5000	307.407
438.0000	307.532
438.5000	307.57
439.0000	307.69
439.5000	307.753
440.0000	307.807
440.5000	307.937
441.0000	307.969
441.5000	308.048
442.0000	308.149
442.5000	308.224
443.0000	308.349
443.5000	308.412
444.0000	308.452
444.5000	308.526
445.0000	308.563
445.5000	308.654
446.0000	308.725
446.5000	308.826
447.0000	308.928
447.5000	308.96
448.0000	309.039
448.5000	309.064
449.0000	309.15
449.5000	309.274
450.0000	309.357
450.5000	309.444
451.0000	309.522
451.5000	309.621
452.0000	309.73
452.5000	309.862
453.0000	309.882
453.5000	309.957
454.0000	309.988
454.5000	310.018
455.0000	310.153
455.5000	310.217
456.0000	310.343
456.5000	310.444
457.0000	310.471
457.5000	310.523
458.0000	310.569
458.5000	310.62
459.0000	310.717
459.5000	310.821
460.0000	310.931
460.5000	311.02
461.0000	311.088
461.5000	311.133
462.0000	311.208
462.5000	311.278
463.0000	311.405
463.5000	311.477
464.0000	311.539
464.5000	311.642
465.0000	311.678
465.5000	311.778
466.0000	311.82
466.5000	311.901
467.0000	311.933
467.5000	312.001
468.0000	312.111
468.5000	312.151
469.0000	312.287
469.5000	312.345
470.0000	312.386
470.5000	312.442
471.0000	312.508
471.5000	312.577
472.0000	312.67
472.5000	312.785
473.0000	312.804
473.5000	312.913
474.0000	312.995
474.5000	313.033
475.0000	313.125
475.5000	313.16
476.0000	313.228
476.5000	313.298
477.0000	313.399
477.5000	313.482
478.0000	313.517
478.5000	313.608
479.0000	313.67
479.5000	313.746
480.0000	313.848
480.5000	313.931
481.0000	313.999
481.5000	314.059
482.0000	314.1
482.5000	314.153
483.0000	314.217
483.5000	314.318
484.0000	314.433
484.5000	314.492
485.0000	314.505
485.5000	314.55
486.0000	314.594
486.5000	314.663
487.0000	314.799
487.5000	314.877
488.0000	314.962
488.5000	315.017
489.0000	315.096
489.5000	315.171
490.0000	315.269
490.5000	315.342
491.0000	315.394
491.5000	315.444
492.0000	315.447
492.5000	315.501
493.0000	315.569
493.5000	315.622
494.0000	315.68
494.5000	315.74
495.0000	315.779
495.5000	315.918
496.0000	315.985
496.5000	316.089
497.0000	316.102
497.5000	316.109
498.0000	316.166
498.5000	316.169
499.0000	316.283
499.5000	316.331
500.0000	316.47
500.5000	316.515
501.0000	316.606
501.5000	316.674
502.0000	316.695
502.5000	316.806
503.0000	316.863
503.5000	316.934
504.0000	317.064
504.5000	317.176
505.0000	317.268
505.5000	317.324
506.0000	317.352
506.5000	317.43
507.0000	317.503
507.5000	317.544
508.0000	317.583
508.5000	317.589
509.0000	317.663
509.5000	317.779
510.0000	317.855
510.5000	317.912
511.0000	317.981
511.5000	318.045
512.0000	318.06
512.5000	318.133
513.0000	318.119
513.5000	318.185
514.0000	318.224
514.5000	318.307
515.0000	318.437
515.5000	318.471
516.0000	318.538
516.5000	318.601
517.0000	318.62
517.5000	318.716
518.0000	318.828
518.5000	318.826
519.0000	318.867
519.5000	318.916
520.0000	318.993
520.5000	319.12
521.0000	319.248
521.5000	319.26
522.0000	319.332
522.5000	319.398
523.0000	319.445
523.5000	319.564
524.0000	319.617
524.5000	319.658
525.0000	319.711
525.5000	319.788
526.0000	319.845
526.5000	319.946
527.0000	319.934
527.5000	319.937
528.0000	320.028
528.5000	320.08
529.0000	320.214
529.5000	320.276
530.0000	320.316
530.5000	320.395
531.0000	320.522
531.5000	320.663
532.0000	320.735
532.5000	320.729
533.0000	320.763
533.5000	320.819
534.0000	320.907
534.5000	321.053
535.0000	321.079
535.5000	321.09
536.0000	321.115
536.5000	321.152
537.0000	321.215
537.5000	321.318
538.0000	321.425
538.5000	321.455
539.0000	321.52
539.5000	321.612
540.0000	321.627
540.5000	321.699
541.0000	321.776
541.5000	321.743
542.0000	321.807
542.5000	321.833
543.0000	321.873
543.5000	322.031
544.0000	322.115
544.5000	322.246
545.0000	322.338
545.5000	322.386
546.0000	322.447
546.5000	322.528
547.0000	322.559
547.5000	322.602
548.0000	322.703
548.5000	322.735
549.0000	322.799
549.5000	322.878
550.0000	322.905
550.5000	323.022
551.0000	323.132
551.5000	323.183
552.0000	323.26
552.5000	323.293
553.0000	323.31
553.5000	323.356
554.0000	323.401
554.5000	323.466
555.0000	323.555
555.5000	323.613
556.0000	323.67
556.5000	323.746
557.0000	323.777
