TITLE	
DATA TYPE	
ORIGIN	JASCO
OWNER	
DATE	22/08/25
TIME	15:23:26
SPECTROMETER/DATA SYSTEM	
RESOLUTION	
DELTAX	0.5
XUNITS	SEC
YUNITS	INTENSITY
FIRSTX	0.0000
LASTX	1596.0000
NPOINTS	3193
FIRSTY	536.30737
MAXY	677.85559
MINY	-59.52715
XYDATA
0.0000	536.307
0.5000	536.194
1.0000	536.144
1.5000	536.146
2.0000	536.115
2.5000	536.012
3.0000	535.942
3.5000	535.856
4.0000	535.752
4.5000	535.806
5.0000	535.764
5.5000	535.676
6.0000	535.597
6.5000	535.508
7.0000	535.457
7.5000	535.52
8.0000	535.551
8.5000	535.552
9.0000	535.474
9.5000	535.381
10.0000	535.341
10.5000	535.272
11.0000	535.399
11.5000	535.435
12.0000	535.455
12.5000	535.515
13.0000	535.435
13.5000	535.359
14.0000	535.301
14.5000	535.191
15.0000	535.134
15.5000	535.168
16.0000	535.223
16.5000	535.366
17.0000	535.437
17.5000	535.499
18.0000	535.49
18.5000	535.382
19.0000	535.402
19.5000	535.388
20.0000	535.385
20.5000	535.481
21.0000	535.441
21.5000	535.373
22.0000	530.305
22.5000	515.3
23.0000	481.928
23.5000	306.536
24.0000	-59.5271
24.5000	-36.8174
25.0000	-32.0353
25.5000	-30.3434
26.0000	-29.2724
26.5000	-28.77
27.0000	-28.2883
27.5000	-27.9354
28.0000	-27.7982
28.5000	-27.5476
29.0000	-27.4098
29.5000	-27.1386
30.0000	-27.0618
30.5000	262.037
31.0000	354.77
31.5000	355.707
32.0000	355.906
32.5000	342.633
33.0000	338.199
33.5000	338.142
34.0000	338.304
34.5000	338.58
35.0000	338.956
35.5000	339.328
36.0000	339.732
36.5000	340.132
37.0000	340.597
37.5000	341.053
38.0000	341.45
38.5000	341.842
39.0000	342.102
39.5000	342.25
40.0000	342.305
40.5000	342.269
41.0000	342.323
41.5000	342.53
42.0000	342.928
42.5000	343.554
43.0000	344.278
43.5000	345.03
44.0000	345.695
44.5000	346.283
45.0000	346.753
45.5000	347.191
46.0000	347.676
46.5000	348.112
47.0000	348.578
47.5000	349.038
48.0000	349.512
48.5000	349.919
49.0000	350.375
49.5000	350.786
50.0000	351.201
50.5000	351.683
51.0000	352.107
51.5000	352.534
52.0000	352.92
52.5000	353.356
53.0000	353.775
53.5000	354.241
54.0000	354.774
54.5000	355.209
55.0000	355.64
55.5000	356.067
56.0000	356.471
56.5000	356.911
57.0000	357.403
57.5000	357.862
58.0000	358.277
58.5000	358.737
59.0000	359.154
59.5000	359.6
60.0000	360.051
60.5000	360.501
61.0000	360.9
61.5000	361.358
62.0000	361.833
62.5000	362.222
63.0000	362.677
63.5000	363.109
64.0000	363.528
64.5000	364.013
65.0000	364.478
65.5000	364.936
66.0000	365.411
66.5000	365.863
67.0000	366.312
67.5000	366.755
68.0000	367.172
68.5000	367.585
69.0000	368.035
69.5000	368.482
70.0000	368.922
70.5000	369.348
71.0000	369.752
71.5000	370.182
72.0000	370.557
72.5000	370.945
73.0000	371.399
73.5000	371.815
74.0000	372.336
74.5000	372.79
75.0000	373.223
75.5000	373.649
76.0000	374.079
76.5000	374.609
77.0000	375.09
77.5000	375.577
78.0000	376.006
78.5000	376.364
79.0000	376.707
79.5000	377.11
80.0000	377.559
80.5000	378.007
81.0000	378.538
81.5000	379.004
82.0000	379.451
82.5000	379.939
83.0000	380.358
83.5000	380.792
84.0000	381.18
84.5000	381.494
85.0000	381.961
85.5000	382.377
86.0000	382.804
86.5000	383.301
87.0000	383.669
87.5000	384.038
88.0000	384.541
88.5000	384.951
89.0000	385.392
89.5000	385.924
90.0000	386.316
90.5000	386.768
91.0000	387.219
91.5000	387.63
92.0000	388.049
92.5000	388.579
93.0000	389.019
93.5000	389.419
94.0000	389.806
94.5000	390.158
95.0000	390.598
95.5000	391.016
96.0000	391.46
96.5000	391.9
97.0000	392.297
97.5000	392.719
98.0000	393.102
98.5000	393.538
99.0000	393.951
99.5000	394.401
100.0000	394.904
100.5000	395.356
101.0000	395.865
101.5000	396.311
102.0000	396.726
102.5000	397.1
103.0000	397.467
103.5000	397.855
104.0000	398.257
104.5000	398.659
105.0000	399.102
105.5000	399.582
106.0000	400.001
106.5000	400.514
107.0000	400.892
107.5000	401.318
108.0000	401.753
108.5000	402.137
109.0000	402.598
109.5000	402.981
110.0000	403.378
110.5000	403.81
111.0000	404.216
111.5000	404.66
112.0000	405.118
112.5000	405.479
113.0000	405.866
113.5000	406.258
114.0000	406.711
114.5000	407.181
115.0000	407.624
115.5000	408.057
116.0000	408.498
116.5000	408.875
117.0000	409.265
117.5000	409.679
118.0000	410.072
118.5000	410.544
119.0000	410.975
119.5000	411.408
120.0000	411.806
120.5000	412.168
121.0000	412.602
121.5000	412.937
122.0000	413.258
122.5000	413.642
123.0000	413.996
123.5000	414.481
124.0000	414.949
124.5000	415.378
125.0000	415.807
125.5000	416.156
126.0000	416.57
126.5000	416.934
127.0000	417.356
127.5000	417.732
128.0000	418.124
128.5000	418.55
129.0000	418.904
129.5000	419.352
130.0000	419.742
130.5000	420.126
131.0000	420.528
131.5000	420.897
132.0000	421.303
132.5000	421.719
133.0000	422.151
133.5000	422.555
134.0000	422.906
134.5000	423.221
135.0000	423.592
135.5000	423.998
136.0000	424.408
136.5000	424.86
137.0000	425.253
137.5000	425.563
138.0000	425.938
138.5000	426.322
139.0000	426.664
139.5000	427.103
140.0000	427.54
140.5000	427.965
141.0000	428.375
141.5000	428.792
142.0000	429.102
142.5000	429.458
143.0000	429.894
143.5000	430.24
144.0000	430.651
144.5000	431.036
145.0000	431.367
145.5000	431.692
146.0000	432.036
146.5000	432.369
147.0000	432.743
147.5000	433.206
148.0000	433.649
148.5000	434.029
149.0000	434.34
149.5000	434.675
150.0000	435.057
150.5000	435.453
151.0000	435.85
151.5000	436.205
152.0000	436.53
152.5000	436.887
153.0000	437.331
153.5000	437.743
154.0000	438.093
154.5000	438.419
155.0000	438.748
155.5000	439.054
156.0000	439.455
156.5000	439.882
157.0000	440.292
157.5000	440.709
158.0000	441.121
158.5000	441.52
159.0000	441.853
159.5000	442.153
160.0000	442.475
160.5000	442.791
161.0000	443.136
161.5000	443.568
162.0000	443.914
162.5000	444.312
163.0000	444.67
163.5000	444.985
164.0000	445.374
164.5000	445.694
165.0000	446.062
165.5000	446.358
166.0000	446.708
166.5000	447.021
167.0000	447.346
167.5000	447.752
168.0000	448.098
168.5000	448.502
169.0000	448.883
169.5000	449.228
170.0000	449.515
170.5000	449.815
171.0000	450.171
171.5000	450.511
172.0000	450.868
172.5000	451.227
173.0000	451.583
173.5000	451.919
174.0000	452.237
174.5000	452.587
175.0000	452.858
175.5000	453.217
176.0000	453.567
176.5000	453.874
177.0000	454.26
177.5000	454.647
178.0000	454.976
178.5000	455.339
179.0000	455.669
179.5000	455.911
180.0000	456.332
180.5000	456.679
181.0000	456.995
181.5000	457.418
182.0000	457.703
182.5000	457.994
183.0000	458.341
183.5000	458.666
184.0000	459
184.5000	459.364
185.0000	459.657
185.5000	460.02
186.0000	460.416
186.5000	460.756
187.0000	461.108
187.5000	461.423
188.0000	461.613
188.5000	461.975
189.0000	462.329
189.5000	462.554
190.0000	462.925
190.5000	463.147
191.0000	463.491
191.5000	463.87
192.0000	464.189
192.5000	464.573
193.0000	464.87
193.5000	465.208
194.0000	465.49
194.5000	465.815
195.0000	466.158
195.5000	466.401
196.0000	466.801
196.5000	467.061
197.0000	467.345
197.5000	467.669
198.0000	467.941
198.5000	468.358
199.0000	468.629
199.5000	469.03
200.0000	469.307
200.5000	469.551
201.0000	469.817
201.5000	470.097
202.0000	470.513
202.5000	470.813
203.0000	471.188
203.5000	471.454
204.0000	471.689
204.5000	472.032
205.0000	472.33
205.5000	472.64
206.0000	472.984
206.5000	473.278
207.0000	473.657
207.5000	473.962
208.0000	474.212
208.5000	474.496
209.0000	474.714
209.5000	475.065
210.0000	475.342
210.5000	475.636
211.0000	475.968
211.5000	476.221
212.0000	476.56
212.5000	476.879
213.0000	477.209
213.5000	477.543
214.0000	477.886
214.5000	478.172
215.0000	478.431
215.5000	478.748
216.0000	478.989
216.5000	479.296
217.0000	479.537
217.5000	479.755
218.0000	480.096
218.5000	480.392
219.0000	480.726
219.5000	481.041
220.0000	481.377
220.5000	481.688
221.0000	482.013
221.5000	482.283
222.0000	482.573
222.5000	482.818
223.0000	483.047
223.5000	483.382
224.0000	483.625
224.5000	483.873
225.0000	484.24
225.5000	484.492
226.0000	484.815
226.5000	485.161
227.0000	485.457
227.5000	485.775
228.0000	486.008
228.5000	486.295
229.0000	486.553
229.5000	486.872
230.0000	487.134
230.5000	487.4
231.0000	487.691
231.5000	487.878
232.0000	488.188
232.5000	488.517
233.0000	488.759
233.5000	489.113
234.0000	489.38
234.5000	489.652
235.0000	489.904
235.5000	490.194
236.0000	490.506
236.5000	490.711
237.0000	490.991
237.5000	491.239
238.0000	491.506
238.5000	491.766
239.0000	492.013
239.5000	492.218
240.0000	492.488
240.5000	492.846
241.0000	493.161
241.5000	493.409
242.0000	493.699
242.5000	493.924
243.0000	494.16
243.5000	494.488
244.0000	494.668
244.5000	494.987
245.0000	495.339
245.5000	495.617
246.0000	495.858
246.5000	496.014
247.0000	496.279
247.5000	496.477
248.0000	496.794
248.5000	497.172
249.0000	497.372
249.5000	497.691
250.0000	497.977
250.5000	498.235
251.0000	498.51
251.5000	498.745
252.0000	499.008
252.5000	499.215
253.0000	499.468
253.5000	499.777
254.0000	500.01
254.5000	500.251
255.0000	500.497
255.5000	500.69
256.0000	500.92
256.5000	501.198
257.0000	501.548
257.5000	501.797
258.0000	502.087
258.5000	502.253
259.0000	502.408
259.5000	502.688
260.0000	502.879
260.5000	503.274
261.0000	503.569
261.5000	503.872
262.0000	504.203
262.5000	504.371
263.0000	504.621
263.5000	504.884
264.0000	505.133
264.5000	505.419
265.0000	505.631
265.5000	505.861
266.0000	506.114
266.5000	506.374
267.0000	506.603
267.5000	506.855
268.0000	507.068
268.5000	507.283
269.0000	507.557
269.5000	507.846
270.0000	508.153
270.5000	508.415
271.0000	508.628
271.5000	508.829
272.0000	509.014
272.5000	509.244
273.0000	509.49
273.5000	509.761
274.0000	510.097
274.5000	510.349
275.0000	510.586
275.5000	510.741
276.0000	510.906
276.5000	511.12
277.0000	511.452
277.5000	511.754
278.0000	511.965
278.5000	512.195
279.0000	512.399
279.5000	512.672
280.0000	512.865
280.5000	513.083
281.0000	513.257
281.5000	513.417
282.0000	513.722
282.5000	514.022
283.0000	514.302
283.5000	514.462
284.0000	514.675
284.5000	514.928
285.0000	515.117
285.5000	515.469
286.0000	515.769
286.5000	515.979
287.0000	516.271
287.5000	516.428
288.0000	516.675
288.5000	516.902
289.0000	517.141
289.5000	517.426
290.0000	517.61
290.5000	517.895
291.0000	518.151
291.5000	518.298
292.0000	518.53
292.5000	518.724
293.0000	518.957
293.5000	519.26
294.0000	519.467
294.5000	519.695
295.0000	519.943
295.5000	520.224
296.0000	520.503
296.5000	520.755
297.0000	521.01
297.5000	521.148
298.0000	521.347
298.5000	521.512
299.0000	521.702
299.5000	521.976
300.0000	522.24
300.5000	522.519
301.0000	522.74
301.5000	522.954
302.0000	523.116
302.5000	523.438
303.0000	523.624
303.5000	523.93
304.0000	524.16
304.5000	524.373
305.0000	524.592
305.5000	524.771
306.0000	525.084
306.5000	525.13
307.0000	525.379
307.5000	525.618
308.0000	525.765
308.5000	526.089
309.0000	526.305
309.5000	526.543
310.0000	526.759
310.5000	527.028
311.0000	527.244
311.5000	527.549
312.0000	527.786
312.5000	527.956
313.0000	528.22
313.5000	528.305
314.0000	528.513
314.5000	528.751
315.0000	528.964
315.5000	529.217
316.0000	529.538
316.5000	529.713
317.0000	529.935
317.5000	530.13
318.0000	530.311
318.5000	530.57
319.0000	530.76
319.5000	531.052
320.0000	531.24
320.5000	531.458
321.0000	531.695
321.5000	531.827
322.0000	532.064
322.5000	532.308
323.0000	532.531
323.5000	532.773
324.0000	532.983
324.5000	533.227
325.0000	533.485
325.5000	533.707
326.0000	533.886
326.5000	533.997
327.0000	534.153
327.5000	534.314
328.0000	534.609
328.5000	534.82
329.0000	534.992
329.5000	535.248
330.0000	535.465
330.5000	535.7
331.0000	535.94
331.5000	536.16
332.0000	536.324
332.5000	536.573
333.0000	536.756
333.5000	536.89
334.0000	537.069
334.5000	537.189
335.0000	537.482
335.5000	537.746
336.0000	537.898
336.5000	538.262
337.0000	538.496
337.5000	538.674
338.0000	538.855
338.5000	538.984
339.0000	539.096
339.5000	539.356
340.0000	539.665
340.5000	539.875
341.0000	540.158
341.5000	540.359
342.0000	540.561
342.5000	540.804
343.0000	540.934
343.5000	541.152
344.0000	541.357
344.5000	541.52
345.0000	541.788
345.5000	542.021
346.0000	542.225
346.5000	542.357
347.0000	542.538
347.5000	542.767
348.0000	543.013
348.5000	543.329
349.0000	543.517
349.5000	543.671
350.0000	543.835
350.5000	544.024
351.0000	544.188
351.5000	544.394
352.0000	544.554
352.5000	544.659
353.0000	544.944
353.5000	545.033
354.0000	545.331
354.5000	545.583
355.0000	545.693
355.5000	546.063
356.0000	546.214
356.5000	546.477
357.0000	546.749
357.5000	546.856
358.0000	547.048
358.5000	547.221
359.0000	547.406
359.5000	547.612
360.0000	547.794
360.5000	547.991
361.0000	548.164
361.5000	548.444
362.0000	548.744
362.5000	548.901
363.0000	549.087
363.5000	549.16
364.0000	549.214
364.5000	549.443
365.0000	549.588
365.5000	549.847
366.0000	550.084
366.5000	550.264
367.0000	550.557
367.5000	550.739
368.0000	550.972
368.5000	551.252
369.0000	551.383
369.5000	551.621
370.0000	551.707
370.5000	551.794
371.0000	551.965
371.5000	552.113
372.0000	552.384
372.5000	552.524
373.0000	552.717
373.5000	552.982
374.0000	553.163
374.5000	553.428
375.0000	553.706
375.5000	553.795
376.0000	554.039
376.5000	554.273
377.0000	554.431
377.5000	554.625
378.0000	554.808
378.5000	554.919
379.0000	555.063
379.5000	555.291
380.0000	555.356
380.5000	555.575
381.0000	555.8
381.5000	555.995
382.0000	556.266
382.5000	556.379
383.0000	556.504
383.5000	556.629
384.0000	556.726
384.5000	556.964
385.0000	557.292
385.5000	557.516
386.0000	557.683
386.5000	557.851
387.0000	557.94
387.5000	558.114
388.0000	558.485
388.5000	558.743
389.0000	558.928
389.5000	559.107
390.0000	559.201
390.5000	559.3
391.0000	559.432
391.5000	559.62
392.0000	559.829
392.5000	560.002
393.0000	560.268
393.5000	560.554
394.0000	560.669
394.5000	560.836
395.0000	560.989
395.5000	561.078
396.0000	561.298
396.5000	561.527
397.0000	561.714
397.5000	561.857
398.0000	562.008
398.5000	562.18
399.0000	562.306
399.5000	562.538
400.0000	562.821
400.5000	562.936
401.0000	563.122
401.5000	563.267
402.0000	563.372
402.5000	563.661
403.0000	563.961
403.5000	564.053
404.0000	564.214
404.5000	564.374
405.0000	564.546
405.5000	564.772
406.0000	564.994
406.5000	565.092
407.0000	565.112
407.5000	565.372
408.0000	565.58
408.5000	565.83
409.0000	566.107
409.5000	566.229
410.0000	566.335
410.5000	566.501
411.0000	566.629
411.5000	566.776
412.0000	566.952
412.5000	567.169
413.0000	567.394
413.5000	567.581
414.0000	567.758
414.5000	567.954
415.0000	568.119
415.5000	568.317
416.0000	568.541
416.5000	568.638
417.0000	568.831
417.5000	569.039
418.0000	569.185
418.5000	569.386
419.0000	569.566
419.5000	569.702
420.0000	569.845
420.5000	570.003
421.0000	570.13
421.5000	570.268
422.0000	570.427
422.5000	570.6
423.0000	570.713
423.5000	570.951
424.0000	571.163
424.5000	571.283
425.0000	571.605
425.5000	571.711
426.0000	571.802
426.5000	572.004
427.0000	572.08
427.5000	572.334
428.0000	572.517
428.5000	572.644
429.0000	572.815
429.5000	572.901
430.0000	573.085
430.5000	573.338
431.0000	573.504
431.5000	573.645
432.0000	573.859
432.5000	573.996
433.0000	574.146
433.5000	574.352
434.0000	574.508
434.5000	574.619
435.0000	574.772
435.5000	574.93
436.0000	575.076
436.5000	575.309
437.0000	575.489
437.5000	575.695
438.0000	575.97
438.5000	576.075
439.0000	576.234
439.5000	576.349
440.0000	576.47
440.5000	576.725
441.0000	576.873
441.5000	577.008
442.0000	577.094
442.5000	577.244
443.0000	577.382
443.5000	577.654
444.0000	577.827
444.5000	577.928
445.0000	578.128
445.5000	578.256
446.0000	578.359
446.5000	578.553
447.0000	578.671
447.5000	578.716
448.0000	578.953
448.5000	579.102
449.0000	579.218
449.5000	579.436
450.0000	579.542
450.5000	579.674
451.0000	579.953
451.5000	580.131
452.0000	580.245
452.5000	580.478
453.0000	580.623
453.5000	580.779
454.0000	581.051
454.5000	581.188
455.0000	581.308
455.5000	581.411
456.0000	581.478
456.5000	581.557
457.0000	581.734
457.5000	581.915
458.0000	582.107
458.5000	582.284
459.0000	582.474
459.5000	582.649
460.0000	582.841
460.5000	582.999
461.0000	583.118
461.5000	583.275
462.0000	583.316
462.5000	583.447
463.0000	583.59
463.5000	583.661
464.0000	583.827
464.5000	583.988
465.0000	584.156
465.5000	584.38
466.0000	584.571
466.5000	584.693
467.0000	584.777
467.5000	584.895
468.0000	585.081
468.5000	585.256
469.0000	585.544
469.5000	585.745
470.0000	585.812
470.5000	585.97
471.0000	586.022
471.5000	586.259
472.0000	586.486
472.5000	586.619
473.0000	586.675
473.5000	586.771
474.0000	586.862
474.5000	586.912
475.0000	587.186
475.5000	587.214
476.0000	587.394
476.5000	587.636
477.0000	587.751
477.5000	587.942
478.0000	588.012
478.5000	588.208
479.0000	588.428
479.5000	588.578
480.0000	588.713
480.5000	588.792
481.0000	588.835
481.5000	588.916
482.0000	589.086
482.5000	589.18
483.0000	589.318
483.5000	589.513
484.0000	589.707
484.5000	589.793
485.0000	589.903
485.5000	590.045
486.0000	590.181
486.5000	590.338
487.0000	590.487
487.5000	590.654
488.0000	590.725
488.5000	590.956
489.0000	591.093
489.5000	591.148
490.0000	591.335
490.5000	591.394
491.0000	591.586
491.5000	591.742
492.0000	591.874
492.5000	591.966
493.0000	592.024
493.5000	592.139
494.0000	592.247
494.5000	592.474
495.0000	592.54
495.5000	592.718
496.0000	592.831
496.5000	592.988
497.0000	593.251
497.5000	593.424
498.0000	593.705
498.5000	593.827
499.0000	593.98
499.5000	594.09
500.0000	594.08
500.5000	594.225
501.0000	594.303
501.5000	594.45
502.0000	594.568
502.5000	594.656
503.0000	594.877
503.5000	594.991
504.0000	595.161
504.5000	595.398
505.0000	595.385
505.5000	595.498
506.0000	595.627
506.5000	595.608
507.0000	595.78
507.5000	595.934
508.0000	596.177
508.5000	596.331
509.0000	596.436
509.5000	596.579
510.0000	596.574
510.5000	596.713
511.0000	596.895
511.5000	597.012
512.0000	597.187
512.5000	597.342
513.0000	597.47
513.5000	597.591
514.0000	597.682
514.5000	597.745
515.0000	597.859
515.5000	598.013
516.0000	598.154
516.5000	598.435
517.0000	598.619
517.5000	598.675
518.0000	598.821
518.5000	598.81
519.0000	598.931
519.5000	599.117
520.0000	599.285
520.5000	599.464
521.0000	599.633
521.5000	599.707
522.0000	599.787
522.5000	599.869
523.0000	599.961
523.5000	600.054
524.0000	600.136
524.5000	600.385
525.0000	600.483
525.5000	600.641
526.0000	600.821
526.5000	600.917
527.0000	600.974
527.5000	601.049
528.0000	601.147
528.5000	601.253
529.0000	601.452
529.5000	601.746
530.0000	601.851
530.5000	602.054
531.0000	602.22
531.5000	602.286
532.0000	602.428
532.5000	602.477
533.0000	602.545
533.5000	602.601
534.0000	602.727
534.5000	602.824
535.0000	602.858
535.5000	603.048
536.0000	603.131
536.5000	603.291
537.0000	603.454
537.5000	603.593
538.0000	603.796
538.5000	603.911
539.0000	604.097
539.5000	604.098
540.0000	604.208
540.5000	604.33
541.0000	604.386
541.5000	604.554
542.0000	604.683
542.5000	604.742
543.0000	604.849
543.5000	605.078
544.0000	605.254
544.5000	605.456
545.0000	605.618
545.5000	605.641
546.0000	605.667
546.5000	605.689
547.0000	605.855
547.5000	605.978
548.0000	606.078
548.5000	606.233
549.0000	606.295
549.5000	606.436
550.0000	606.525
550.5000	606.631
551.0000	606.741
551.5000	606.927
552.0000	607.042
552.5000	607.2
553.0000	607.313
553.5000	607.339
554.0000	607.458
554.5000	607.577
555.0000	607.652
555.5000	607.734
556.0000	607.885
556.5000	607.975
