TITLE	
DATA TYPE	
ORIGIN	JASCO
OWNER	
DATE	22/04/19
TIME	18:16:06
SPECTROMETER/DATA SYSTEM	
RESOLUTION	
DELTAX	0.5
XUNITS	SEC
YUNITS	INTENSITY
FIRSTX	0.0000
LASTX	2347.0000
NPOINTS	4695
FIRSTY	480.86624
MAXY	481.63043
MINY	-74.65693
XYDATA
0.0000	480.866
0.5000	480.834
1.0000	480.777
1.5000	480.865
2.0000	480.809
2.5000	480.875
3.0000	480.937
3.5000	480.824
4.0000	480.873
4.5000	480.869
5.0000	480.848
5.5000	480.86
6.0000	480.964
6.5000	480.911
7.0000	480.795
7.5000	480.856
8.0000	480.779
8.5000	480.76
9.0000	480.921
9.5000	480.896
10.0000	480.846
10.5000	480.919
11.0000	480.868
11.5000	480.887
12.0000	480.912
12.5000	480.847
13.0000	480.849
13.5000	480.837
14.0000	480.877
14.5000	480.845
15.0000	480.827
15.5000	480.896
16.0000	480.878
16.5000	481.003
17.0000	481.045
17.5000	480.971
18.0000	481.056
18.5000	480.97
19.0000	481.032
19.5000	481.092
20.0000	481.023
20.5000	481.114
21.0000	481.039
21.5000	481.079
22.0000	481.227
22.5000	481.199
23.0000	481.399
23.5000	481.38
24.0000	481.391
24.5000	481.536
25.0000	481.459
25.5000	481.537
26.0000	481.556
26.5000	481.519
27.0000	481.482
27.5000	481.391
28.0000	481.368
28.5000	481.351
29.0000	481.375
29.5000	481.46
30.0000	481.495
30.5000	481.43
31.0000	481.418
31.5000	481.439
32.0000	481.296
32.5000	481.296
33.0000	481.361
33.5000	481.385
34.0000	481.478
34.5000	481.539
35.0000	481.596
35.5000	481.563
36.0000	481.581
36.5000	481.63
37.0000	481.493
37.5000	481.572
38.0000	481.553
38.5000	481.442
39.0000	481.442
39.5000	481.321
40.0000	481.369
40.5000	481.455
41.0000	481.456
41.5000	481.475
42.0000	481.513
42.5000	481.521
43.0000	481.615
43.5000	481.63
44.0000	481.596
44.5000	481.607
45.0000	469.081
45.5000	449.09
46.0000	407.261
46.5000	214.14
47.0000	-74.6569
47.5000	-39.1675
48.0000	-32.1569
48.5000	-29.9374
49.0000	-28.7791
49.5000	-27.9065
50.0000	-27.2212
50.5000	-26.8078
51.0000	-26.2586
51.5000	-26.1204
52.0000	-25.9557
52.5000	-25.7308
53.0000	-25.6466
53.5000	292.943
54.0000	278.306
54.5000	275.146
55.0000	273.586
55.5000	251.316
56.0000	252.208
56.5000	252.134
57.0000	252.07
57.5000	251.975
58.0000	251.951
58.5000	251.972
59.0000	251.984
59.5000	252.082
60.0000	252.102
60.5000	252.154
61.0000	252.228
61.5000	252.308
62.0000	252.41
62.5000	252.494
63.0000	252.59
63.5000	252.639
64.0000	252.648
64.5000	252.689
65.0000	252.679
65.5000	252.732
66.0000	252.759
66.5000	252.717
67.0000	252.739
67.5000	252.702
68.0000	252.735
68.5000	252.791
69.0000	252.841
69.5000	252.915
70.0000	252.969
70.5000	252.991
71.0000	253.075
71.5000	253.098
72.0000	253.195
72.5000	253.293
73.0000	253.388
73.5000	253.48
74.0000	253.507
74.5000	253.59
75.0000	253.576
75.5000	253.652
76.0000	253.729
76.5000	253.773
77.0000	253.845
77.5000	253.895
78.0000	253.901
78.5000	253.943
79.0000	253.993
79.5000	254.054
80.0000	254.109
80.5000	254.15
81.0000	254.111
81.5000	254.197
82.0000	254.307
82.5000	254.342
83.0000	254.447
83.5000	254.435
84.0000	254.478
84.5000	254.508
85.0000	254.561
85.5000	254.665
86.0000	254.635
86.5000	254.722
87.0000	254.752
87.5000	254.741
88.0000	254.822
88.5000	254.854
89.0000	254.939
89.5000	254.993
90.0000	255.098
90.5000	255.137
91.0000	255.168
91.5000	255.202
92.0000	255.145
92.5000	255.195
93.0000	255.267
93.5000	255.329
94.0000	255.454
94.5000	255.542
95.0000	255.571
95.5000	255.664
96.0000	255.734
96.5000	255.738
97.0000	255.804
97.5000	255.84
98.0000	255.83
98.5000	255.896
99.0000	255.987
99.5000	256.017
100.0000	256.095
100.5000	256.207
101.0000	256.212
101.5000	256.232
102.0000	256.286
102.5000	256.283
103.0000	256.338
103.5000	256.397
104.0000	256.408
104.5000	256.418
105.0000	256.494
105.5000	256.565
106.0000	256.594
106.5000	256.71
107.0000	256.734
107.5000	256.785
108.0000	256.86
108.5000	256.901
109.0000	256.97
109.5000	256.939
110.0000	256.971
110.5000	256.969
111.0000	256.929
111.5000	257.029
112.0000	257.137
112.5000	257.2
113.0000	257.304
113.5000	257.366
114.0000	257.329
114.5000	257.391
115.0000	257.422
115.5000	257.451
116.0000	257.546
116.5000	257.608
117.0000	257.667
117.5000	257.755
118.0000	257.886
118.5000	257.943
119.0000	257.996
119.5000	257.998
120.0000	257.991
120.5000	258.007
121.0000	258.099
121.5000	258.174
122.0000	258.158
122.5000	258.271
123.0000	258.298
123.5000	258.368
124.0000	258.4
124.5000	258.389
125.0000	258.368
125.5000	258.335
126.0000	258.446
126.5000	258.453
127.0000	258.486
127.5000	258.536
128.0000	258.563
128.5000	258.664
129.0000	258.773
129.5000	258.87
130.0000	258.934
130.5000	258.954
131.0000	258.994
131.5000	259.057
132.0000	259.12
132.5000	259.184
133.0000	259.236
133.5000	259.2
134.0000	259.238
134.5000	259.277
135.0000	259.274
135.5000	259.376
136.0000	259.409
136.5000	259.435
137.0000	259.524
137.5000	259.587
138.0000	259.633
138.5000	259.669
139.0000	259.699
139.5000	259.731
140.0000	259.737
140.5000	259.821
141.0000	259.895
141.5000	259.899
142.0000	259.955
142.5000	260.044
143.0000	260.076
143.5000	260.159
144.0000	260.222
144.5000	260.176
145.0000	260.236
145.5000	260.333
146.0000	260.353
146.5000	260.452
147.0000	260.486
147.5000	260.495
148.0000	260.537
148.5000	260.54
149.0000	260.567
149.5000	260.593
150.0000	260.676
150.5000	260.752
151.0000	260.802
151.5000	260.903
152.0000	260.908
152.5000	260.934
153.0000	260.951
153.5000	260.875
154.0000	260.985
154.5000	260.99
155.0000	261.065
155.5000	261.171
156.0000	261.121
156.5000	261.138
157.0000	261.189
157.5000	261.185
158.0000	261.287
158.5000	261.374
159.0000	261.446
159.5000	261.513
160.0000	261.559
160.5000	261.57
161.0000	261.534
161.5000	261.627
162.0000	261.68
162.5000	261.692
163.0000	261.743
163.5000	261.767
164.0000	261.805
164.5000	261.976
165.0000	262.029
165.5000	262.058
166.0000	262.045
166.5000	262.057
167.0000	262.134
167.5000	262.167
168.0000	262.196
168.5000	262.228
169.0000	262.254
169.5000	262.308
170.0000	262.433
170.5000	262.445
171.0000	262.474
171.5000	262.491
172.0000	262.509
172.5000	262.592
173.0000	262.628
173.5000	262.627
174.0000	262.639
174.5000	262.675
175.0000	262.73
175.5000	262.796
176.0000	262.87
176.5000	262.875
177.0000	262.93
177.5000	262.981
178.0000	263.019
178.5000	263.03
179.0000	263.055
179.5000	263.116
180.0000	263.135
180.5000	263.226
181.0000	263.251
181.5000	263.334
182.0000	263.397
182.5000	263.487
183.0000	263.527
183.5000	263.517
184.0000	263.569
184.5000	263.553
185.0000	263.636
185.5000	263.687
186.0000	263.708
186.5000	263.727
187.0000	263.735
187.5000	263.782
188.0000	263.793
188.5000	263.831
189.0000	263.887
189.5000	263.954
190.0000	264.032
190.5000	264.097
191.0000	264.116
191.5000	264.119
192.0000	264.139
192.5000	264.211
193.0000	264.242
193.5000	264.276
194.0000	264.339
194.5000	264.333
195.0000	264.417
195.5000	264.449
196.0000	264.449
196.5000	264.468
197.0000	264.473
197.5000	264.572
198.0000	264.666
198.5000	264.711
199.0000	264.755
199.5000	264.746
200.0000	264.727
200.5000	264.814
201.0000	264.837
201.5000	264.913
202.0000	264.997
202.5000	265.024
203.0000	265.041
203.5000	265.061
204.0000	265.061
204.5000	265.095
205.0000	265.19
205.5000	265.199
206.0000	265.269
206.5000	265.322
207.0000	265.336
207.5000	265.345
208.0000	265.363
208.5000	265.433
209.0000	265.471
209.5000	265.538
210.0000	265.607
210.5000	265.579
211.0000	265.627
211.5000	265.683
212.0000	265.705
212.5000	265.761
213.0000	265.803
213.5000	265.866
214.0000	265.896
214.5000	265.94
215.0000	265.957
215.5000	265.963
216.0000	266.018
216.5000	266.076
217.0000	266.1
217.5000	266.144
218.0000	266.178
218.5000	266.264
219.0000	266.359
219.5000	266.368
220.0000	266.4
220.5000	266.371
221.0000	266.377
221.5000	266.45
222.0000	266.528
222.5000	266.574
223.0000	266.637
223.5000	266.708
224.0000	266.698
224.5000	266.724
225.0000	266.722
225.5000	266.78
226.0000	266.818
226.5000	266.855
227.0000	266.963
227.5000	266.938
228.0000	266.969
228.5000	266.952
229.0000	266.969
229.5000	267.027
230.0000	267.066
230.5000	267.171
231.0000	267.172
231.5000	267.165
232.0000	267.208
232.5000	267.253
233.0000	267.326
233.5000	267.458
234.0000	267.467
234.5000	267.474
235.0000	267.46
235.5000	267.431
236.0000	267.485
236.5000	267.549
237.0000	267.67
237.5000	267.705
238.0000	267.805
238.5000	267.817
239.0000	267.797
239.5000	267.839
240.0000	267.816
240.5000	267.881
241.0000	267.903
241.5000	267.978
242.0000	268.036
242.5000	268.079
243.0000	268.15
243.5000	268.199
244.0000	268.265
244.5000	268.272
245.0000	268.323
245.5000	268.349
246.0000	268.368
246.5000	268.45
247.0000	268.453
247.5000	268.475
248.0000	268.495
248.5000	268.483
249.0000	268.538
249.5000	268.645
250.0000	268.695
250.5000	268.78
251.0000	268.825
251.5000	268.781
252.0000	268.814
252.5000	268.876
253.0000	268.914
253.5000	268.997
254.0000	269.031
254.5000	268.981
255.0000	268.995
255.5000	269.011
256.0000	269.058
256.5000	269.137
257.0000	269.234
257.5000	269.247
258.0000	269.278
258.5000	269.316
259.0000	269.301
259.5000	269.326
260.0000	269.372
260.5000	269.428
261.0000	269.471
261.5000	269.573
262.0000	269.587
262.5000	269.594
263.0000	269.643
263.5000	269.614
264.0000	269.691
264.5000	269.732
265.0000	269.745
265.5000	269.805
266.0000	269.854
266.5000	269.921
267.0000	269.95
267.5000	269.994
268.0000	270.024
268.5000	270.035
269.0000	270.126
269.5000	270.152
270.0000	270.172
270.5000	270.185
271.0000	270.168
271.5000	270.239
272.0000	270.305
272.5000	270.377
273.0000	270.467
273.5000	270.501
274.0000	270.458
274.5000	270.502
275.0000	270.547
275.5000	270.561
276.0000	270.678
276.5000	270.735
277.0000	270.727
277.5000	270.825
278.0000	270.843
278.5000	270.862
279.0000	270.933
279.5000	270.904
280.0000	270.98
280.5000	270.981
281.0000	271
281.5000	271.063
282.0000	271.07
282.5000	271.111
283.0000	271.143
283.5000	271.125
284.0000	271.191
284.5000	271.268
285.0000	271.331
285.5000	271.338
286.0000	271.315
286.5000	271.375
287.0000	271.426
287.5000	271.46
288.0000	271.518
288.5000	271.524
289.0000	271.484
289.5000	271.623
290.0000	271.655
290.5000	271.679
291.0000	271.78
291.5000	271.753
292.0000	271.802
292.5000	271.876
293.0000	271.886
293.5000	271.977
294.0000	272.028
294.5000	272.026
295.0000	272.085
295.5000	272.09
296.0000	272.103
296.5000	272.132
297.0000	272.096
297.5000	272.142
298.0000	272.193
298.5000	272.211
299.0000	272.316
299.5000	272.417
300.0000	272.468
300.5000	272.5
301.0000	272.48
301.5000	272.499
302.0000	272.484
302.5000	272.566
303.0000	272.674
303.5000	272.695
304.0000	272.772
304.5000	272.844
305.0000	272.865
305.5000	272.848
306.0000	272.842
306.5000	272.835
307.0000	272.861
307.5000	272.89
308.0000	272.972
308.5000	272.986
309.0000	273.02
309.5000	273.091
310.0000	273.108
310.5000	273.175
311.0000	273.224
311.5000	273.285
312.0000	273.334
312.5000	273.375
313.0000	273.414
313.5000	273.442
314.0000	273.427
314.5000	273.473
315.0000	273.51
315.5000	273.537
316.0000	273.566
316.5000	273.565
317.0000	273.569
317.5000	273.555
318.0000	273.588
318.5000	273.611
319.0000	273.696
319.5000	273.733
320.0000	273.824
320.5000	273.886
321.0000	273.874
321.5000	273.934
322.0000	273.962
322.5000	274.045
323.0000	274.086
323.5000	274.125
324.0000	274.177
324.5000	274.172
325.0000	274.202
325.5000	274.244
326.0000	274.271
326.5000	274.323
327.0000	274.3
327.5000	274.387
328.0000	274.41
328.5000	274.438
329.0000	274.574
329.5000	274.583
330.0000	274.595
330.5000	274.634
331.0000	274.654
331.5000	274.688
332.0000	274.779
332.5000	274.815
333.0000	274.864
333.5000	274.89
334.0000	274.914
334.5000	274.975
335.0000	274.991
335.5000	275.029
336.0000	275.072
336.5000	275.053
337.0000	275.063
337.5000	275.061
338.0000	275.094
338.5000	275.173
339.0000	275.234
339.5000	275.295
340.0000	275.337
340.5000	275.408
341.0000	275.431
341.5000	275.449
342.0000	275.513
342.5000	275.532
343.0000	275.574
343.5000	275.598
344.0000	275.584
344.5000	275.562
345.0000	275.608
345.5000	275.707
346.0000	275.784
346.5000	275.848
347.0000	275.854
347.5000	275.876
348.0000	275.885
348.5000	275.868
349.0000	275.915
349.5000	275.962
350.0000	275.966
350.5000	276.047
351.0000	276.091
351.5000	276.087
352.0000	276.127
352.5000	276.134
353.0000	276.214
353.5000	276.258
354.0000	276.322
354.5000	276.421
355.0000	276.418
355.5000	276.46
356.0000	276.451
356.5000	276.413
357.0000	276.491
357.5000	276.56
358.0000	276.638
358.5000	276.718
359.0000	276.707
359.5000	276.734
360.0000	276.742
360.5000	276.747
361.0000	276.811
361.5000	276.851
362.0000	276.892
362.5000	276.943
363.0000	276.957
363.5000	276.937
364.0000	277.002
364.5000	277.023
365.0000	277.057
365.5000	277.121
366.0000	277.124
366.5000	277.188
367.0000	277.2
367.5000	277.166
368.0000	277.202
368.5000	277.218
369.0000	277.338
369.5000	277.431
370.0000	277.484
370.5000	277.55
371.0000	277.547
371.5000	277.614
372.0000	277.639
372.5000	277.612
373.0000	277.618
373.5000	277.6
374.0000	277.672
374.5000	277.738
375.0000	277.768
375.5000	277.83
376.0000	277.869
376.5000	277.904
377.0000	277.968
377.5000	278.008
378.0000	278
378.5000	278.04
379.0000	278.026
379.5000	278.096
380.0000	278.126
380.5000	278.195
381.0000	278.266
381.5000	278.272
382.0000	278.302
382.5000	278.315
383.0000	278.393
383.5000	278.432
384.0000	278.449
384.5000	278.507
385.0000	278.474
385.5000	278.482
386.0000	278.582
386.5000	278.57
387.0000	278.64
387.5000	278.725
388.0000	278.715
388.5000	278.733
389.0000	278.806
389.5000	278.789
390.0000	278.805
390.5000	278.913
391.0000	278.837
391.5000	278.856
392.0000	278.892
392.5000	278.875
393.0000	278.953
393.5000	279.001
394.0000	279.123
394.5000	279.174
395.0000	279.217
395.5000	279.251
396.0000	279.248
396.5000	279.217
397.0000	279.234
397.5000	279.309
398.0000	279.37
398.5000	279.508
399.0000	279.534
399.5000	279.546
400.0000	279.562
400.5000	279.567
401.0000	279.67
401.5000	279.758
402.0000	279.823
402.5000	279.848
403.0000	279.857
403.5000	279.861
404.0000	279.853
404.5000	279.909
405.0000	279.959
405.5000	279.951
406.0000	279.988
406.5000	280.034
407.0000	280.013
407.5000	280.048
408.0000	280.04
408.5000	280.062
409.0000	280.094
409.5000	280.177
410.0000	280.266
410.5000	280.272
411.0000	280.339
411.5000	280.388
412.0000	280.408
412.5000	280.449
413.0000	280.532
413.5000	280.523
414.0000	280.587
414.5000	280.62
415.0000	280.575
415.5000	280.628
416.0000	280.573
416.5000	280.627
417.0000	280.653
417.5000	280.69
418.0000	280.825
418.5000	280.863
419.0000	280.942
419.5000	280.999
420.0000	280.964
420.5000	280.935
421.0000	280.997
421.5000	280.957
422.0000	281
422.5000	281.08
423.0000	281.055
423.5000	281.054
424.0000	281.116
424.5000	281.161
425.0000	281.186
425.5000	281.251
426.0000	281.204
426.5000	281.252
427.0000	281.295
427.5000	281.373
428.0000	281.464
428.5000	281.505
429.0000	281.549
429.5000	281.615
430.0000	281.705
430.5000	281.698
431.0000	281.734
431.5000	281.695
432.0000	281.699
432.5000	281.757
433.0000	281.756
433.5000	281.825
434.0000	281.83
434.5000	281.813
435.0000	281.863
435.5000	281.904
436.0000	281.992
436.5000	282.059
437.0000	282.104
437.5000	282.123
438.0000	282.142
438.5000	282.161
439.0000	282.175
439.5000	282.224
440.0000	282.207
440.5000	282.252
441.0000	282.298
441.5000	282.329
442.0000	282.374
442.5000	282.375
443.0000	282.41
443.5000	282.467
444.0000	282.531
444.5000	282.622
445.0000	282.652
445.5000	282.66
446.0000	282.648
446.5000	282.615
447.0000	282.615
447.5000	282.601
448.0000	282.697
448.5000	282.736
449.0000	282.857
449.5000	282.934
450.0000	282.893
450.5000	282.956
451.0000	282.916
451.5000	282.919
452.0000	282.969
452.5000	282.953
453.0000	283.062
453.5000	283.092
454.0000	283.126
454.5000	283.204
455.0000	283.177
455.5000	283.206
456.0000	283.246
456.5000	283.279
457.0000	283.362
457.5000	283.377
458.0000	283.397
458.5000	283.393
459.0000	283.353
459.5000	283.486
460.0000	283.546
460.5000	283.623
461.0000	283.713
461.5000	283.653
462.0000	283.648
462.5000	283.655
463.0000	283.653
463.5000	283.696
464.0000	283.742
464.5000	283.799
465.0000	283.817
465.5000	283.842
466.0000	283.883
466.5000	283.897
467.0000	283.951
467.5000	283.953
468.0000	283.983
468.5000	284.002
469.0000	284.037
469.5000	284.079
470.0000	284.065
470.5000	284.16
471.0000	284.19
471.5000	284.215
472.0000	284.314
472.5000	284.233
473.0000	284.249
473.5000	284.337
474.0000	284.347
474.5000	284.466
475.0000	284.519
475.5000	284.599
476.0000	284.634
476.5000	284.645
477.0000	284.633
477.5000	284.643
478.0000	284.682
478.5000	284.692
479.0000	284.757
479.5000	284.757
480.0000	284.753
480.5000	284.803
481.0000	284.802
481.5000	284.817
482.0000	284.82
482.5000	284.869
483.0000	284.928
483.5000	284.971
484.0000	285.082
484.5000	285.096
485.0000	285.163
485.5000	285.189
486.0000	285.228
486.5000	285.291
487.0000	285.282
487.5000	285.336
488.0000	285.316
488.5000	285.292
489.0000	285.419
489.5000	285.445
490.0000	285.431
490.5000	285.495
491.0000	285.406
491.5000	285.43
492.0000	285.525
492.5000	285.537
493.0000	285.631
493.5000	285.661
494.0000	285.655
494.5000	285.7
495.0000	285.663
495.5000	285.712
496.0000	285.807
496.5000	285.889
497.0000	286.004
497.5000	286.06
498.0000	286.042
498.5000	286.045
499.0000	286.05
499.5000	286.033
500.0000	286.09
500.5000	286.146
501.0000	286.186
501.5000	286.254
502.0000	286.299
502.5000	286.347
503.0000	286.328
503.5000	286.354
504.0000	286.373
504.5000	286.346
505.0000	286.394
505.5000	286.412
506.0000	286.452
506.5000	286.472
507.0000	286.492
507.5000	286.485
508.0000	286.51
508.5000	286.596
509.0000	286.641
509.5000	286.686
510.0000	286.746
510.5000	286.735
511.0000	286.796
511.5000	286.894
512.0000	286.886
512.5000	286.952
513.0000	287.009
513.5000	287.022
514.0000	287.056
514.5000	287.115
515.0000	287.109
515.5000	287.127
516.0000	287.096
516.5000	287.074
517.0000	287.085
517.5000	287.081
518.0000	287.19
518.5000	287.218
519.0000	287.246
519.5000	287.314
520.0000	287.32
520.5000	287.354
521.0000	287.398
521.5000	287.448
522.0000	287.539
522.5000	287.603
523.0000	287.673
523.5000	287.643
524.0000	287.643
524.5000	287.602
525.0000	287.617
525.5000	287.672
526.0000	287.697
526.5000	287.768
527.0000	287.759
527.5000	287.743
528.0000	287.709
528.5000	287.777
529.0000	287.848
529.5000	287.932
530.0000	288.028
530.5000	288.031
531.0000	288.047
531.5000	288.043
532.0000	288.016
532.5000	288.012
533.0000	288.072
533.5000	288.095
534.0000	288.143
534.5000	288.219
535.0000	288.223
535.5000	288.27
536.0000	288.349
536.5000	288.367
537.0000	288.412
537.5000	288.537
538.0000	288.578
538.5000	288.651
539.0000	288.678
539.5000	288.656
540.0000	288.675
540.5000	288.698
541.0000	288.755
541.5000	288.803
542.0000	288.821
542.5000	288.765
543.0000	288.796
543.5000	288.805
544.0000	288.788
544.5000	288.865
545.0000	288.897
545.5000	288.92
546.0000	288.98
546.5000	288.979
547.0000	289.027
547.5000	289.063
548.0000	289.131
548.5000	289.219
549.0000	289.233
549.5000	289.31
550.0000	289.338
550.5000	289.376
551.0000	289.382
551.5000	289.391
552.0000	289.379
552.5000	289.39
553.0000	289.4
553.5000	289.407
554.0000	289.516
554.5000	289.555
555.0000	289.611
555.5000	289.622
556.0000	289.611
556.5000	289.658
