TITLE	
DATA TYPE	
ORIGIN	JASCO
OWNER	
DATE	22/04/19
TIME	17:35:29
SPECTROMETER/DATA SYSTEM	
RESOLUTION	
DELTAX	0.5
XUNITS	SEC
YUNITS	INTENSITY
FIRSTX	0.0000
LASTX	2086.5000
NPOINTS	4174
FIRSTY	561.19159
MAXY	561.19159
MINY	-93.23050
XYDATA
0.0000	561.192
0.5000	542.461
1.0000	535.592
1.5000	525.893
2.0000	489.778
2.5000	489.264
3.0000	488.779
3.5000	488.427
4.0000	488.249
4.5000	488.125
5.0000	488.061
5.5000	488.008
6.0000	487.813
6.5000	487.642
7.0000	487.493
7.5000	487.453
8.0000	487.388
8.5000	487.366
9.0000	487.427
9.5000	487.372
10.0000	487.356
10.5000	487.34
11.0000	487.296
11.5000	487.328
12.0000	487.274
12.5000	487.251
13.0000	487.098
13.5000	487.003
14.0000	486.944
14.5000	486.966
15.0000	487.088
15.5000	487.167
16.0000	487.228
16.5000	487.145
17.0000	487.1
17.5000	486.973
18.0000	486.839
18.5000	486.853
19.0000	477.75
19.5000	459.085
20.0000	424.273
20.5000	298.397
21.0000	-93.2305
21.5000	-42.6425
22.0000	-33.1829
22.5000	-30.3584
23.0000	-29.026
23.5000	-28.0923
24.0000	-27.4615
24.5000	-26.8675
25.0000	-26.4255
25.5000	-26.0986
26.0000	-25.2966
26.5000	284.119
27.0000	275.239
27.5000	273.736
28.0000	272.937
28.5000	252.669
29.0000	253.679
29.5000	253.641
30.0000	253.575
30.5000	253.47
31.0000	253.443
31.5000	253.377
32.0000	253.38
32.5000	253.481
33.0000	253.45
33.5000	253.536
34.0000	253.562
34.5000	253.546
35.0000	253.628
35.5000	253.667
36.0000	253.677
36.5000	253.705
37.0000	253.667
37.5000	253.598
38.0000	253.544
38.5000	253.515
39.0000	253.48
39.5000	253.49
40.0000	253.605
40.5000	253.744
41.0000	253.899
41.5000	254.01
42.0000	254.138
42.5000	254.176
43.0000	254.229
43.5000	254.319
44.0000	254.372
44.5000	254.442
45.0000	254.509
45.5000	254.565
46.0000	254.616
46.5000	254.683
47.0000	254.699
47.5000	254.745
48.0000	254.777
48.5000	254.8
49.0000	254.873
49.5000	254.937
50.0000	254.936
50.5000	254.96
51.0000	255.008
51.5000	255.036
52.0000	255.067
52.5000	255.193
53.0000	255.27
53.5000	255.343
54.0000	255.461
54.5000	255.432
55.0000	255.463
55.5000	255.474
56.0000	255.527
56.5000	255.647
57.0000	255.717
57.5000	255.771
58.0000	255.815
58.5000	255.825
59.0000	255.905
59.5000	255.983
60.0000	256.011
60.5000	256.06
61.0000	256.063
61.5000	256.072
62.0000	256.103
62.5000	256.18
63.0000	256.225
63.5000	256.308
64.0000	256.406
64.5000	256.434
65.0000	256.482
65.5000	256.539
66.0000	256.626
66.5000	256.665
67.0000	256.757
67.5000	256.8
68.0000	256.766
68.5000	256.788
69.0000	256.817
69.5000	256.839
70.0000	256.941
70.5000	257.032
71.0000	257.073
71.5000	257.159
72.0000	257.199
72.5000	257.265
73.0000	257.294
73.5000	257.339
74.0000	257.403
74.5000	257.444
75.0000	257.534
75.5000	257.611
76.0000	257.596
76.5000	257.65
77.0000	257.749
77.5000	257.753
78.0000	257.861
78.5000	257.887
79.0000	257.896
79.5000	257.969
80.0000	257.998
80.5000	258.067
81.0000	258.125
81.5000	258.162
82.0000	258.229
82.5000	258.258
83.0000	258.286
83.5000	258.318
84.0000	258.364
84.5000	258.466
85.0000	258.543
85.5000	258.621
86.0000	258.668
86.5000	258.717
87.0000	258.768
87.5000	258.832
88.0000	258.897
88.5000	258.977
89.0000	259.004
89.5000	259.008
90.0000	259.077
90.5000	259.092
91.0000	259.125
91.5000	259.188
92.0000	259.208
92.5000	259.245
93.0000	259.377
93.5000	259.464
94.0000	259.523
94.5000	259.563
95.0000	259.549
95.5000	259.596
96.0000	259.613
96.5000	259.675
97.0000	259.765
97.5000	259.802
98.0000	259.915
98.5000	259.988
99.0000	260.012
99.5000	260.097
100.0000	260.178
100.5000	260.2
101.0000	260.314
101.5000	260.353
102.0000	260.357
102.5000	260.41
103.0000	260.396
103.5000	260.463
104.0000	260.543
104.5000	260.584
105.0000	260.649
105.5000	260.672
106.0000	260.675
106.5000	260.758
107.0000	260.845
107.5000	260.928
108.0000	261.018
108.5000	261.13
109.0000	261.155
109.5000	261.168
110.0000	261.207
110.5000	261.208
111.0000	261.296
111.5000	261.387
112.0000	261.521
112.5000	261.588
113.0000	261.626
113.5000	261.671
114.0000	261.699
114.5000	261.808
115.0000	261.851
115.5000	261.922
116.0000	261.938
116.5000	261.916
117.0000	261.944
117.5000	262.018
118.0000	262.083
118.5000	262.212
119.0000	262.317
119.5000	262.343
120.0000	262.456
120.5000	262.471
121.0000	262.519
121.5000	262.589
122.0000	262.6
122.5000	262.685
123.0000	262.784
123.5000	262.822
124.0000	262.857
124.5000	262.922
125.0000	262.923
125.5000	263.05
126.0000	263.135
126.5000	263.116
127.0000	263.164
127.5000	263.176
128.0000	263.238
128.5000	263.352
129.0000	263.453
129.5000	263.521
130.0000	263.574
130.5000	263.582
131.0000	263.615
131.5000	263.608
132.0000	263.66
132.5000	263.753
133.0000	263.794
133.5000	263.944
134.0000	263.976
134.5000	264.104
135.0000	264.194
135.5000	264.251
136.0000	264.36
136.5000	264.295
137.0000	264.349
137.5000	264.385
138.0000	264.4
138.5000	264.533
139.0000	264.645
139.5000	264.711
140.0000	264.778
140.5000	264.88
141.0000	264.906
141.5000	264.991
142.0000	265.068
142.5000	265.148
143.0000	265.222
143.5000	265.249
144.0000	265.333
144.5000	265.307
145.0000	265.321
145.5000	265.356
146.0000	265.434
146.5000	265.493
147.0000	265.554
147.5000	265.654
148.0000	265.687
148.5000	265.795
149.0000	265.876
149.5000	265.912
150.0000	266.006
150.5000	266.023
151.0000	266.057
151.5000	266.152
152.0000	266.18
152.5000	266.229
153.0000	266.342
153.5000	266.404
154.0000	266.461
154.5000	266.568
155.0000	266.611
155.5000	266.644
156.0000	266.68
156.5000	266.685
157.0000	266.706
157.5000	266.774
158.0000	266.851
158.5000	266.913
159.0000	267.021
159.5000	267.064
160.0000	267.094
160.5000	267.146
161.0000	267.159
161.5000	267.309
162.0000	267.379
162.5000	267.459
163.0000	267.537
163.5000	267.479
164.0000	267.553
164.5000	267.605
165.0000	267.678
165.5000	267.771
166.0000	267.866
166.5000	267.936
167.0000	267.987
167.5000	268.008
168.0000	268.045
168.5000	268.077
169.0000	268.131
169.5000	268.228
170.0000	268.335
170.5000	268.384
171.0000	268.414
171.5000	268.482
172.0000	268.434
172.5000	268.488
173.0000	268.587
173.5000	268.617
174.0000	268.72
174.5000	268.806
175.0000	268.784
175.5000	268.793
176.0000	268.835
176.5000	268.875
177.0000	268.956
177.5000	269.032
178.0000	269.115
178.5000	269.232
179.0000	269.305
179.5000	269.381
180.0000	269.399
180.5000	269.408
181.0000	269.497
181.5000	269.581
182.0000	269.629
182.5000	269.69
183.0000	269.738
183.5000	269.809
184.0000	269.923
184.5000	269.997
185.0000	270.036
185.5000	270.037
186.0000	270.062
186.5000	270.079
187.0000	270.132
187.5000	270.226
188.0000	270.283
188.5000	270.349
189.0000	270.449
189.5000	270.493
190.0000	270.586
190.5000	270.663
191.0000	270.636
191.5000	270.698
192.0000	270.739
192.5000	270.754
193.0000	270.842
193.5000	270.889
194.0000	270.936
194.5000	271.019
195.0000	271.052
195.5000	271.086
196.0000	271.092
196.5000	271.155
197.0000	271.289
197.5000	271.393
198.0000	271.48
198.5000	271.493
199.0000	271.542
199.5000	271.534
200.0000	271.636
200.5000	271.65
201.0000	271.643
201.5000	271.75
202.0000	271.735
202.5000	271.805
203.0000	271.861
203.5000	271.868
204.0000	271.945
204.5000	272.044
205.0000	272.111
205.5000	272.212
206.0000	272.276
206.5000	272.306
207.0000	272.395
207.5000	272.424
208.0000	272.44
208.5000	272.524
209.0000	272.539
209.5000	272.576
210.0000	272.666
210.5000	272.711
211.0000	272.783
211.5000	272.857
212.0000	272.82
212.5000	272.901
213.0000	272.955
213.5000	272.976
214.0000	273.106
214.5000	273.108
215.0000	273.126
215.5000	273.24
216.0000	273.297
216.5000	273.395
217.0000	273.444
217.5000	273.46
218.0000	273.487
218.5000	273.556
219.0000	273.689
219.5000	273.719
220.0000	273.749
220.5000	273.795
221.0000	273.759
221.5000	273.798
222.0000	273.91
222.5000	273.964
223.0000	274.026
223.5000	274.124
224.0000	274.15
224.5000	274.163
225.0000	274.275
225.5000	274.285
226.0000	274.293
226.5000	274.344
227.0000	274.315
227.5000	274.405
228.0000	274.513
228.5000	274.568
229.0000	274.598
229.5000	274.645
230.0000	274.653
230.5000	274.683
231.0000	274.817
231.5000	274.823
232.0000	274.864
232.5000	274.938
233.0000	274.994
233.5000	275.128
234.0000	275.196
234.5000	275.217
235.0000	275.212
235.5000	275.246
236.0000	275.286
236.5000	275.386
237.0000	275.494
237.5000	275.528
238.0000	275.561
238.5000	275.663
239.0000	275.655
239.5000	275.671
240.0000	275.752
240.5000	275.735
241.0000	275.817
241.5000	275.915
242.0000	276
242.5000	276.055
243.0000	276.095
243.5000	276.089
244.0000	276.083
244.5000	276.088
245.0000	276.147
245.5000	276.217
246.0000	276.298
246.5000	276.425
247.0000	276.497
247.5000	276.524
248.0000	276.552
248.5000	276.589
249.0000	276.541
249.5000	276.648
250.0000	276.761
250.5000	276.816
251.0000	276.945
251.5000	276.968
252.0000	276.978
252.5000	276.95
253.0000	277.017
253.5000	277.085
254.0000	277.084
254.5000	277.114
255.0000	277.129
255.5000	277.096
256.0000	277.209
256.5000	277.286
257.0000	277.351
257.5000	277.453
258.0000	277.478
258.5000	277.53
259.0000	277.582
259.5000	277.599
260.0000	277.688
260.5000	277.768
261.0000	277.829
261.5000	277.947
262.0000	277.971
262.5000	278.032
263.0000	278.037
263.5000	278.027
264.0000	278.02
264.5000	278.024
265.0000	278.091
265.5000	278.119
266.0000	278.219
266.5000	278.295
267.0000	278.312
267.5000	278.409
268.0000	278.46
268.5000	278.528
269.0000	278.576
269.5000	278.61
270.0000	278.611
270.5000	278.628
271.0000	278.695
271.5000	278.769
272.0000	278.805
272.5000	278.87
273.0000	278.945
273.5000	278.991
274.0000	279.106
274.5000	279.126
275.0000	279.143
275.5000	279.185
276.0000	279.199
276.5000	279.244
277.0000	279.298
277.5000	279.368
278.0000	279.389
278.5000	279.499
279.0000	279.562
279.5000	279.564
280.0000	279.618
280.5000	279.578
281.0000	279.643
281.5000	279.657
282.0000	279.692
282.5000	279.804
283.0000	279.787
283.5000	279.918
284.0000	280.009
284.5000	280.001
285.0000	280.041
285.5000	280.06
286.0000	280.131
286.5000	280.174
287.0000	280.25
287.5000	280.268
288.0000	280.272
288.5000	280.386
289.0000	280.489
289.5000	280.545
290.0000	280.615
290.5000	280.611
291.0000	280.613
291.5000	280.617
292.0000	280.697
292.5000	280.778
293.0000	280.814
293.5000	280.918
294.0000	280.944
294.5000	280.955
295.0000	280.965
295.5000	280.998
296.0000	281.049
296.5000	281.103
297.0000	281.152
297.5000	281.195
298.0000	281.168
298.5000	281.243
299.0000	281.284
299.5000	281.298
300.0000	281.36
300.5000	281.362
301.0000	281.405
301.5000	281.471
302.0000	281.547
302.5000	281.594
303.0000	281.63
303.5000	281.658
304.0000	281.685
304.5000	281.745
305.0000	281.844
305.5000	281.886
306.0000	281.896
306.5000	281.961
307.0000	282
307.5000	282.056
308.0000	282.129
308.5000	282.146
309.0000	282.125
309.5000	282.189
310.0000	282.288
310.5000	282.267
311.0000	282.382
311.5000	282.432
312.0000	282.427
312.5000	282.562
313.0000	282.6
313.5000	282.654
314.0000	282.707
314.5000	282.732
315.0000	282.77
315.5000	282.782
316.0000	282.84
316.5000	282.863
317.0000	282.94
317.5000	282.967
318.0000	282.977
318.5000	283.061
319.0000	283.089
319.5000	283.139
320.0000	283.17
320.5000	283.199
321.0000	283.212
321.5000	283.218
322.0000	283.333
322.5000	283.386
323.0000	283.426
323.5000	283.549
324.0000	283.551
324.5000	283.56
325.0000	283.588
325.5000	283.61
326.0000	283.635
326.5000	283.65
327.0000	283.725
327.5000	283.801
328.0000	283.853
328.5000	283.924
329.0000	283.97
329.5000	283.988
330.0000	284.007
330.5000	284.079
331.0000	284.065
331.5000	284.123
332.0000	284.188
332.5000	284.208
333.0000	284.276
333.5000	284.29
334.0000	284.364
334.5000	284.459
335.0000	284.476
335.5000	284.516
336.0000	284.531
336.5000	284.49
337.0000	284.584
337.5000	284.662
338.0000	284.685
338.5000	284.779
339.0000	284.831
339.5000	284.821
340.0000	284.874
340.5000	284.887
341.0000	284.866
341.5000	284.967
342.0000	285.014
342.5000	285.126
343.0000	285.173
343.5000	285.185
344.0000	285.267
344.5000	285.337
345.0000	285.462
345.5000	285.486
346.0000	285.512
346.5000	285.483
347.0000	285.505
347.5000	285.549
348.0000	285.54
348.5000	285.606
349.0000	285.659
349.5000	285.688
350.0000	285.81
350.5000	285.832
351.0000	285.876
351.5000	285.941
352.0000	285.914
352.5000	285.945
353.0000	285.893
353.5000	286.025
354.0000	286.07
354.5000	286.113
355.0000	286.241
355.5000	286.142
356.0000	286.164
356.5000	286.25
357.0000	286.285
357.5000	286.379
358.0000	286.494
358.5000	286.518
359.0000	286.603
359.5000	286.641
360.0000	286.678
360.5000	286.731
361.0000	286.738
361.5000	286.778
362.0000	286.808
362.5000	286.833
363.0000	286.891
363.5000	286.957
364.0000	287.034
364.5000	287.053
365.0000	287.035
365.5000	287.104
366.0000	287.115
366.5000	287.199
367.0000	287.285
367.5000	287.33
368.0000	287.337
368.5000	287.464
369.0000	287.517
369.5000	287.522
370.0000	287.593
370.5000	287.552
371.0000	287.664
371.5000	287.714
372.0000	287.772
372.5000	287.795
373.0000	287.754
373.5000	287.817
374.0000	287.854
374.5000	287.912
375.0000	287.965
375.5000	288.001
376.0000	288.065
376.5000	288.112
377.0000	288.169
377.5000	288.217
378.0000	288.298
378.5000	288.342
379.0000	288.384
379.5000	288.444
380.0000	288.491
380.5000	288.565
381.0000	288.597
381.5000	288.714
382.0000	288.72
382.5000	288.736
383.0000	288.816
383.5000	288.78
384.0000	288.856
384.5000	288.945
385.0000	288.961
385.5000	289.047
386.0000	289.093
386.5000	289.112
387.0000	289.202
387.5000	289.221
388.0000	289.271
388.5000	289.319
389.0000	289.355
389.5000	289.425
390.0000	289.422
390.5000	289.535
391.0000	289.543
391.5000	289.59
392.0000	289.691
392.5000	289.687
393.0000	289.774
393.5000	289.826
394.0000	289.86
394.5000	289.926
395.0000	289.93
395.5000	289.988
396.0000	290.046
396.5000	290.085
397.0000	290.246
397.5000	290.291
398.0000	290.4
398.5000	290.477
399.0000	290.53
399.5000	290.63
400.0000	290.637
400.5000	290.707
401.0000	290.676
401.5000	290.761
402.0000	290.835
402.5000	290.861
403.0000	290.976
403.5000	291.014
404.0000	291.092
404.5000	291.163
405.0000	291.262
405.5000	291.35
406.0000	291.43
406.5000	291.536
407.0000	291.667
407.5000	291.672
408.0000	291.706
408.5000	291.84
409.0000	291.905
409.5000	292.021
410.0000	292.164
410.5000	292.229
411.0000	292.301
411.5000	292.373
412.0000	292.471
412.5000	292.552
413.0000	292.618
413.5000	292.729
414.0000	292.792
414.5000	292.881
415.0000	292.976
415.5000	293.088
416.0000	293.115
416.5000	293.165
417.0000	293.217
417.5000	293.324
418.0000	293.525
418.5000	293.682
419.0000	293.809
419.5000	293.942
420.0000	294.045
420.5000	294.108
421.0000	294.228
421.5000	294.3
422.0000	294.379
422.5000	294.527
423.0000	294.658
423.5000	294.744
424.0000	294.882
424.5000	294.999
425.0000	295.102
425.5000	295.247
426.0000	295.338
426.5000	295.467
427.0000	295.58
427.5000	295.662
428.0000	295.791
428.5000	295.874
429.0000	295.971
429.5000	296.118
430.0000	296.237
430.5000	296.376
431.0000	296.494
431.5000	296.579
432.0000	296.688
432.5000	296.802
433.0000	296.967
433.5000	297.163
434.0000	297.274
434.5000	297.397
435.0000	297.491
435.5000	297.547
436.0000	297.658
436.5000	297.773
437.0000	297.893
437.5000	298.036
438.0000	298.183
438.5000	298.266
439.0000	298.348
439.5000	298.481
440.0000	298.554
440.5000	298.646
441.0000	298.769
441.5000	298.909
442.0000	299.017
442.5000	299.224
443.0000	299.388
443.5000	299.443
444.0000	299.662
444.5000	299.712
445.0000	299.771
445.5000	299.892
446.0000	299.924
446.5000	300.048
447.0000	300.215
447.5000	300.311
448.0000	300.497
448.5000	300.592
449.0000	300.674
449.5000	300.836
450.0000	300.878
450.5000	301.025
451.0000	301.129
451.5000	301.189
452.0000	301.337
452.5000	301.447
453.0000	301.532
453.5000	301.623
454.0000	301.666
454.5000	301.714
455.0000	301.858
455.5000	302.017
456.0000	302.124
456.5000	302.254
457.0000	302.327
457.5000	302.415
458.0000	302.529
458.5000	302.594
459.0000	302.742
459.5000	302.841
460.0000	302.943
460.5000	303.075
461.0000	303.182
461.5000	303.284
462.0000	303.384
462.5000	303.522
463.0000	303.583
463.5000	303.688
464.0000	303.773
464.5000	303.852
465.0000	303.929
465.5000	303.992
466.0000	304.129
466.5000	304.232
467.0000	304.353
467.5000	304.473
468.0000	304.503
468.5000	304.542
469.0000	304.636
469.5000	304.711
470.0000	304.794
470.5000	304.884
471.0000	304.938
471.5000	305.058
472.0000	305.221
472.5000	305.33
473.0000	305.532
473.5000	305.595
474.0000	305.649
474.5000	305.795
475.0000	305.818
475.5000	305.878
476.0000	305.985
476.5000	306.037
477.0000	306.151
477.5000	306.254
478.0000	306.345
478.5000	306.439
479.0000	306.488
479.5000	306.547
480.0000	306.559
480.5000	306.677
481.0000	306.742
481.5000	306.928
482.0000	307.145
482.5000	307.182
483.0000	307.331
483.5000	307.307
484.0000	307.314
484.5000	307.389
485.0000	307.407
485.5000	307.554
486.0000	307.644
486.5000	307.701
487.0000	307.773
487.5000	307.829
488.0000	307.889
488.5000	307.978
489.0000	308.093
489.5000	308.128
490.0000	308.201
490.5000	308.3
491.0000	308.346
491.5000	308.43
492.0000	308.535
492.5000	308.596
493.0000	308.696
493.5000	308.829
494.0000	308.914
494.5000	308.997
495.0000	309.035
495.5000	309.115
496.0000	309.147
496.5000	309.223
497.0000	309.309
497.5000	309.36
498.0000	309.444
498.5000	309.497
499.0000	309.607
499.5000	309.644
500.0000	309.747
500.5000	309.839
501.0000	309.835
501.5000	309.941
502.0000	310.022
502.5000	310.185
503.0000	310.28
503.5000	310.359
504.0000	310.409
504.5000	310.397
505.0000	310.485
505.5000	310.57
506.0000	310.604
506.5000	310.637
507.0000	310.704
507.5000	310.722
508.0000	310.881
508.5000	310.974
509.0000	311.017
509.5000	311.1
510.0000	311.103
510.5000	311.16
511.0000	311.256
511.5000	311.37
512.0000	311.412
512.5000	311.5
513.0000	311.535
513.5000	311.546
514.0000	311.614
514.5000	311.665
515.0000	311.718
515.5000	311.798
516.0000	311.886
516.5000	311.873
517.0000	311.993
517.5000	312.023
518.0000	312.099
518.5000	312.287
519.0000	312.305
519.5000	312.352
520.0000	312.432
520.5000	312.418
521.0000	312.442
521.5000	312.516
522.0000	312.552
522.5000	312.584
523.0000	312.677
523.5000	312.723
524.0000	312.741
524.5000	312.867
525.0000	312.925
525.5000	313.019
526.0000	313.087
526.5000	313.127
527.0000	313.181
527.5000	313.262
528.0000	313.361
528.5000	313.481
529.0000	313.544
529.5000	313.522
530.0000	313.505
530.5000	313.455
531.0000	313.505
531.5000	313.575
532.0000	313.629
532.5000	313.678
533.0000	313.73
533.5000	313.811
534.0000	313.838
534.5000	313.9
535.0000	313.991
535.5000	314.014
536.0000	314.1
536.5000	314.187
537.0000	314.267
537.5000	314.329
538.0000	314.383
538.5000	314.452
539.0000	314.439
539.5000	314.473
540.0000	314.516
540.5000	314.546
541.0000	314.579
541.5000	314.65
542.0000	314.699
542.5000	314.753
543.0000	314.836
543.5000	314.875
544.0000	314.967
544.5000	314.985
545.0000	314.991
545.5000	315.08
546.0000	315.103
546.5000	315.153
547.0000	315.203
547.5000	315.242
548.0000	315.295
548.5000	315.376
549.0000	315.424
549.5000	315.454
550.0000	315.48
550.5000	315.469
551.0000	315.532
551.5000	315.555
552.0000	315.609
552.5000	315.712
553.0000	315.8
553.5000	315.876
554.0000	315.944
554.5000	315.966
555.0000	315.984
555.5000	316.015
556.0000	316.039
556.5000	316.112
