TITLE	
DATA TYPE	
ORIGIN	JASCO
OWNER	
DATE	22/04/20
TIME	13:17:30
SPECTROMETER/DATA SYSTEM	
RESOLUTION	
DELTAX	0.5
XUNITS	SEC
YUNITS	INTENSITY
FIRSTX	0.0000
LASTX	2724.5000
NPOINTS	5450
FIRSTY	502.92780
MAXY	645.95105
MINY	-60.48330
XYDATA
0.0000	502.928
0.5000	502.903
1.0000	502.729
1.5000	502.813
2.0000	502.752
2.5000	502.7
3.0000	502.818
3.5000	502.787
4.0000	502.706
4.5000	502.913
5.0000	503.011
5.5000	503.113
6.0000	503.204
6.5000	503.144
7.0000	503.096
7.5000	503.105
8.0000	503.128
8.5000	503.171
9.0000	503.214
9.5000	503.2
10.0000	503.171
10.5000	503.147
11.0000	503.121
11.5000	503.247
12.0000	503.249
12.5000	503.245
13.0000	503.214
13.5000	503.222
14.0000	503.244
14.5000	503.221
15.0000	503.209
15.5000	503.129
16.0000	503.203
16.5000	503.27
17.0000	503.401
17.5000	503.463
18.0000	503.527
18.5000	503.529
19.0000	503.516
19.5000	503.446
20.0000	503.448
20.5000	503.455
21.0000	503.521
21.5000	503.578
22.0000	503.552
22.5000	503.554
23.0000	503.573
23.5000	503.546
24.0000	503.548
24.5000	503.622
25.0000	503.557
25.5000	503.624
26.0000	503.684
26.5000	503.694
27.0000	503.74
27.5000	503.731
28.0000	503.787
28.5000	503.764
29.0000	503.735
29.5000	503.799
30.0000	503.929
30.5000	503.977
31.0000	504.103
31.5000	504.182
32.0000	504.073
32.5000	504.043
33.0000	504.102
33.5000	504.084
34.0000	504.062
34.5000	504.121
35.0000	504.058
35.5000	504.072
36.0000	504.09
36.5000	504.079
37.0000	504.125
37.5000	504.098
38.0000	504.045
38.5000	504.087
39.0000	504.018
39.5000	504.052
40.0000	504.085
40.5000	504.117
41.0000	504.194
41.5000	504.196
42.0000	504.267
42.5000	504.259
43.0000	504.233
43.5000	504.284
44.0000	504.274
44.5000	504.223
45.0000	504.329
45.5000	504.318
46.0000	504.346
46.5000	504.35
47.0000	504.226
47.5000	504.193
48.0000	504.23
48.5000	504.265
49.0000	504.351
49.5000	504.365
50.0000	504.295
50.5000	504.248
51.0000	504.229
51.5000	504.296
52.0000	504.309
52.5000	504.437
53.0000	504.419
53.5000	504.361
54.0000	504.393
54.5000	504.424
55.0000	504.345
55.5000	504.422
56.0000	504.414
56.5000	504.318
57.0000	504.406
57.5000	504.315
58.0000	504.314
58.5000	504.4
59.0000	504.532
59.5000	504.659
60.0000	504.655
60.5000	504.767
61.0000	504.642
61.5000	504.561
62.0000	504.601
62.5000	504.404
63.0000	504.416
63.5000	504.544
64.0000	504.583
64.5000	487.757
65.0000	464.278
65.5000	407.619
66.0000	-15.2961
66.5000	-60.4833
67.0000	-37.1663
67.5000	-32.109
68.0000	-30.0928
68.5000	-28.8619
69.0000	-28.0978
69.5000	-27.4289
70.0000	-27.0239
70.5000	-26.8662
71.0000	-26.5801
71.5000	-26.3518
72.0000	-26.0678
72.5000	-25.9289
73.0000	-25.7334
73.5000	-25.7572
74.0000	315.47
74.5000	295.057
75.0000	290.127
75.5000	287.91
76.0000	263.95
76.5000	264.274
77.0000	264.337
77.5000	264.499
78.0000	264.744
78.5000	265.008
79.0000	265.287
79.5000	265.581
80.0000	265.897
80.5000	266.2
81.0000	266.588
81.5000	266.89
82.0000	267.217
82.5000	267.507
83.0000	267.897
83.5000	268.308
84.0000	268.727
84.5000	269.206
85.0000	269.584
85.5000	269.883
86.0000	270.222
86.5000	270.48
87.0000	270.72
87.5000	271.073
88.0000	271.409
88.5000	271.716
89.0000	272.066
89.5000	272.383
90.0000	272.771
90.5000	273.127
91.0000	273.512
91.5000	273.842
92.0000	274.143
92.5000	274.525
93.0000	274.827
93.5000	275.199
94.0000	275.588
94.5000	275.923
95.0000	276.278
95.5000	276.594
96.0000	276.863
96.5000	277.171
97.0000	277.496
97.5000	277.795
98.0000	278.175
98.5000	278.523
99.0000	278.879
99.5000	279.274
100.0000	279.57
100.5000	279.898
101.0000	280.229
101.5000	280.609
102.0000	280.971
102.5000	281.321
103.0000	281.627
103.5000	281.915
104.0000	282.267
104.5000	282.587
105.0000	282.971
105.5000	283.3
106.0000	283.589
106.5000	283.912
107.0000	284.225
107.5000	284.588
108.0000	284.913
108.5000	285.272
109.0000	285.567
109.5000	285.824
110.0000	286.14
110.5000	286.474
111.0000	286.899
111.5000	287.291
112.0000	287.693
112.5000	288.056
113.0000	288.298
113.5000	288.551
114.0000	288.772
114.5000	289.005
115.0000	289.359
115.5000	289.712
116.0000	290.065
116.5000	290.405
117.0000	290.728
117.5000	291.192
118.0000	291.645
118.5000	292.143
119.0000	292.629
119.5000	292.926
120.0000	293.235
120.5000	293.512
121.0000	293.743
121.5000	294.073
122.0000	294.331
122.5000	294.59
123.0000	294.896
123.5000	295.11
124.0000	295.439
124.5000	295.76
125.0000	296.042
125.5000	296.472
126.0000	296.808
126.5000	297.141
127.0000	297.479
127.5000	297.757
128.0000	298.112
128.5000	298.471
129.0000	298.81
129.5000	299.219
130.0000	299.549
130.5000	299.89
131.0000	300.231
131.5000	300.575
132.0000	300.864
132.5000	301.166
133.0000	301.525
133.5000	301.82
134.0000	302.191
134.5000	302.506
135.0000	302.842
135.5000	303.196
136.0000	303.517
136.5000	303.813
137.0000	304.044
137.5000	304.331
138.0000	304.708
138.5000	305.104
139.0000	305.457
139.5000	305.798
140.0000	306.117
140.5000	306.485
141.0000	306.916
141.5000	307.211
142.0000	307.579
142.5000	307.884
143.0000	308.178
143.5000	308.471
144.0000	308.77
144.5000	309.087
145.0000	309.439
145.5000	309.875
146.0000	310.156
146.5000	310.497
147.0000	310.853
147.5000	311.149
148.0000	311.509
148.5000	311.849
149.0000	312.172
149.5000	312.55
150.0000	312.887
150.5000	313.192
151.0000	313.46
151.5000	313.77
152.0000	314.116
152.5000	314.511
153.0000	314.904
153.5000	315.242
154.0000	315.54
154.5000	315.853
155.0000	316.208
155.5000	316.507
156.0000	316.885
156.5000	317.206
157.0000	317.473
157.5000	317.85
158.0000	318.205
158.5000	318.537
159.0000	318.865
159.5000	319.204
160.0000	319.515
160.5000	319.857
161.0000	320.266
161.5000	320.605
162.0000	320.975
162.5000	321.317
163.0000	321.619
163.5000	321.953
164.0000	322.279
164.5000	322.571
165.0000	322.849
165.5000	323.167
166.0000	323.451
166.5000	323.799
167.0000	324.179
167.5000	324.467
168.0000	324.77
168.5000	325.034
169.0000	325.364
169.5000	325.713
170.0000	326.099
170.5000	326.478
171.0000	326.82
171.5000	327.136
172.0000	327.444
172.5000	327.79
173.0000	328.091
173.5000	328.431
174.0000	328.708
174.5000	329.079
175.0000	329.46
175.5000	329.777
176.0000	330.117
176.5000	330.421
177.0000	330.698
177.5000	330.972
178.0000	331.362
178.5000	331.611
179.0000	331.861
179.5000	332.242
180.0000	332.53
180.5000	332.835
181.0000	333.248
181.5000	333.568
182.0000	333.828
182.5000	334.255
183.0000	334.491
183.5000	334.742
184.0000	335.108
184.5000	335.414
185.0000	335.77
185.5000	336.14
186.0000	336.417
186.5000	336.654
187.0000	336.9
187.5000	337.188
188.0000	337.526
188.5000	337.879
189.0000	338.301
189.5000	338.637
190.0000	338.921
190.5000	339.195
191.0000	339.461
191.5000	339.748
192.0000	340.039
192.5000	340.375
193.0000	340.676
193.5000	340.972
194.0000	341.317
194.5000	341.582
195.0000	341.875
195.5000	342.218
196.0000	342.487
196.5000	342.874
197.0000	343.138
197.5000	343.391
198.0000	343.702
198.5000	343.88
199.0000	344.2
199.5000	344.461
200.0000	344.752
200.5000	345.155
201.0000	345.379
201.5000	345.721
202.0000	346.029
202.5000	346.346
203.0000	346.646
203.5000	346.954
204.0000	347.292
204.5000	347.527
205.0000	347.882
205.5000	348.14
206.0000	348.317
206.5000	348.571
207.0000	348.904
207.5000	349.221
208.0000	349.591
208.5000	349.902
209.0000	350.152
209.5000	350.443
210.0000	350.717
210.5000	351.04
211.0000	351.326
211.5000	351.689
212.0000	351.963
212.5000	352.231
213.0000	352.583
213.5000	352.691
214.0000	352.946
214.5000	353.188
215.0000	353.36
215.5000	353.724
216.0000	354.036
216.5000	354.31
217.0000	354.61
217.5000	354.87
218.0000	355.129
218.5000	355.444
219.0000	355.723
219.5000	356.026
220.0000	356.294
220.5000	356.501
221.0000	356.769
221.5000	357.038
222.0000	357.341
222.5000	357.692
223.0000	358.054
223.5000	358.393
224.0000	358.745
224.5000	358.988
225.0000	359.282
225.5000	359.575
226.0000	359.794
226.5000	360.047
227.0000	360.291
227.5000	360.528
228.0000	360.816
228.5000	361.122
229.0000	361.385
229.5000	361.652
230.0000	361.909
230.5000	362.239
231.0000	362.51
231.5000	362.794
232.0000	363.105
232.5000	363.427
233.0000	363.694
233.5000	363.938
234.0000	364.164
234.5000	364.363
235.0000	364.711
235.5000	365.04
236.0000	365.417
236.5000	365.734
237.0000	366.011
237.5000	366.294
238.0000	366.546
238.5000	366.793
239.0000	367.048
239.5000	367.361
240.0000	367.635
240.5000	367.905
241.0000	368.159
241.5000	368.408
242.0000	368.688
242.5000	368.986
243.0000	369.312
243.5000	369.665
244.0000	369.971
244.5000	370.296
245.0000	370.583
245.5000	370.779
246.0000	371.082
246.5000	371.352
247.0000	371.585
247.5000	371.903
248.0000	372.097
248.5000	372.319
249.0000	372.629
249.5000	372.916
250.0000	373.162
250.5000	373.516
251.0000	373.746
251.5000	373.964
252.0000	374.299
252.5000	374.511
253.0000	374.773
253.5000	375.047
254.0000	375.277
254.5000	375.583
255.0000	375.873
255.5000	376.201
256.0000	376.485
256.5000	376.754
257.0000	376.961
257.5000	377.108
258.0000	377.37
258.5000	377.613
259.0000	377.899
259.5000	378.222
260.0000	378.453
260.5000	378.719
261.0000	378.978
261.5000	379.267
262.0000	379.572
262.5000	379.831
263.0000	380.113
263.5000	380.358
264.0000	380.641
264.5000	380.946
265.0000	381.278
265.5000	381.528
266.0000	381.752
266.5000	381.935
267.0000	382.183
267.5000	382.438
268.0000	382.72
268.5000	383.047
269.0000	383.365
269.5000	383.619
270.0000	383.859
270.5000	384.13
271.0000	384.3
271.5000	384.534
272.0000	384.742
272.5000	384.952
273.0000	385.194
273.5000	385.577
274.0000	385.933
274.5000	386.197
275.0000	386.446
275.5000	386.584
276.0000	386.833
276.5000	387.133
277.0000	387.407
277.5000	387.679
278.0000	387.934
278.5000	388.179
279.0000	388.459
279.5000	388.774
280.0000	388.984
280.5000	389.202
281.0000	389.44
281.5000	389.699
282.0000	389.954
282.5000	390.172
283.0000	390.436
283.5000	390.639
284.0000	390.881
284.5000	391.128
285.0000	391.327
285.5000	391.497
286.0000	391.752
286.5000	391.972
287.0000	392.28
287.5000	392.558
288.0000	392.919
288.5000	393.234
289.0000	393.496
289.5000	393.807
290.0000	393.924
290.5000	394.187
291.0000	394.437
291.5000	394.667
292.0000	394.882
292.5000	395.03
293.0000	395.19
293.5000	395.452
294.0000	395.724
294.5000	396.04
295.0000	396.402
295.5000	396.607
296.0000	396.896
296.5000	397.162
297.0000	397.384
297.5000	397.607
298.0000	397.859
298.5000	398.037
299.0000	398.206
299.5000	398.444
300.0000	398.683
300.5000	398.925
301.0000	399.153
301.5000	399.401
302.0000	399.67
302.5000	399.972
303.0000	400.253
303.5000	400.535
304.0000	400.764
304.5000	400.957
305.0000	401.235
305.5000	401.448
306.0000	401.649
306.5000	401.913
307.0000	402.152
307.5000	402.415
308.0000	402.686
308.5000	402.892
309.0000	403.072
309.5000	403.303
310.0000	403.585
310.5000	403.786
311.0000	404.021
311.5000	404.23
312.0000	404.325
312.5000	404.619
313.0000	404.837
313.5000	405.07
314.0000	405.358
314.5000	405.53
315.0000	405.865
315.5000	406.14
316.0000	406.388
316.5000	406.68
317.0000	406.881
317.5000	407.102
318.0000	407.34
318.5000	407.54
319.0000	407.722
319.5000	407.908
320.0000	408.12
320.5000	408.47
321.0000	408.675
321.5000	408.973
322.0000	409.146
322.5000	409.286
323.0000	409.515
323.5000	409.673
324.0000	409.946
324.5000	410.161
325.0000	410.363
325.5000	410.645
326.0000	410.86
326.5000	411.13
327.0000	411.397
327.5000	411.6
328.0000	411.873
328.5000	412.029
329.0000	412.226
329.5000	412.476
330.0000	412.64
330.5000	412.925
331.0000	413.139
331.5000	413.322
332.0000	413.561
332.5000	413.772
333.0000	414.09
333.5000	414.389
334.0000	414.631
334.5000	414.863
335.0000	415.013
335.5000	415.225
336.0000	415.468
336.5000	415.619
337.0000	415.813
337.5000	415.929
338.0000	416.045
338.5000	416.275
339.0000	416.594
339.5000	416.852
340.0000	417.216
340.5000	417.514
341.0000	417.674
341.5000	417.938
342.0000	418.115
342.5000	418.407
343.0000	418.608
343.5000	418.805
344.0000	418.992
344.5000	419.126
345.0000	419.421
345.5000	419.581
346.0000	419.84
346.5000	420.029
347.0000	420.268
347.5000	420.582
348.0000	420.798
348.5000	421.028
349.0000	421.119
349.5000	421.277
350.0000	421.515
350.5000	421.686
351.0000	421.983
351.5000	422.233
352.0000	422.392
352.5000	422.627
353.0000	422.83
353.5000	423.086
354.0000	423.314
354.5000	423.539
355.0000	423.705
355.5000	423.863
356.0000	424.074
356.5000	424.342
357.0000	424.594
357.5000	424.754
358.0000	424.925
358.5000	425.097
359.0000	425.35
359.5000	425.617
360.0000	425.907
360.5000	426.059
361.0000	426.226
361.5000	426.432
362.0000	426.549
362.5000	426.784
363.0000	427.016
363.5000	427.261
364.0000	427.472
364.5000	427.709
365.0000	427.879
365.5000	428.021
366.0000	428.234
366.5000	428.419
367.0000	428.666
367.5000	428.846
368.0000	429.113
368.5000	429.367
369.0000	429.495
369.5000	429.78
370.0000	429.993
370.5000	430.109
371.0000	430.338
371.5000	430.551
372.0000	430.782
372.5000	430.992
373.0000	431.21
373.5000	431.37
374.0000	431.508
374.5000	431.795
375.0000	432.037
375.5000	432.22
376.0000	432.385
376.5000	432.523
377.0000	432.744
377.5000	432.972
378.0000	433.162
378.5000	433.421
379.0000	433.581
379.5000	433.881
380.0000	434.105
380.5000	434.318
381.0000	434.537
381.5000	434.688
382.0000	434.914
382.5000	435.046
383.0000	435.258
383.5000	435.424
384.0000	435.681
384.5000	435.966
385.0000	436.195
385.5000	436.45
386.0000	436.566
386.5000	436.752
387.0000	436.939
387.5000	437.098
388.0000	437.376
388.5000	437.516
389.0000	437.619
389.5000	437.751
390.0000	437.87
390.5000	438.022
391.0000	438.286
391.5000	438.574
392.0000	438.811
392.5000	439.005
393.0000	439.265
393.5000	439.394
394.0000	439.529
394.5000	439.83
395.0000	439.933
395.5000	440.171
396.0000	440.432
396.5000	440.603
397.0000	440.817
397.5000	440.901
398.0000	441.029
398.5000	441.169
399.0000	441.427
399.5000	441.712
400.0000	441.913
400.5000	442.151
401.0000	442.259
401.5000	442.402
402.0000	442.578
402.5000	442.702
403.0000	442.964
403.5000	443.209
404.0000	443.417
404.5000	443.665
405.0000	443.735
405.5000	443.924
406.0000	444.123
406.5000	444.277
407.0000	444.523
407.5000	444.654
408.0000	444.881
408.5000	445.081
409.0000	445.206
409.5000	445.398
410.0000	445.506
410.5000	445.704
411.0000	446.02
411.5000	446.228
412.0000	446.551
412.5000	446.791
413.0000	446.917
413.5000	447.07
414.0000	447.152
414.5000	447.314
415.0000	447.481
415.5000	447.703
416.0000	447.968
416.5000	448.14
417.0000	448.228
417.5000	448.354
418.0000	448.459
418.5000	448.658
419.0000	448.947
419.5000	449.204
420.0000	449.373
420.5000	449.564
421.0000	449.736
421.5000	449.864
422.0000	450.074
422.5000	450.163
423.0000	450.325
423.5000	450.511
424.0000	450.721
424.5000	450.926
425.0000	451.125
425.5000	451.372
426.0000	451.51
426.5000	451.755
427.0000	452.013
427.5000	452.17
428.0000	452.346
428.5000	452.54
429.0000	452.571
429.5000	452.742
430.0000	453.089
430.5000	453.244
431.0000	453.465
431.5000	453.651
432.0000	453.791
432.5000	453.991
433.0000	454.26
433.5000	454.435
434.0000	454.529
434.5000	454.676
435.0000	454.763
435.5000	454.926
436.0000	455.089
436.5000	455.231
437.0000	455.476
437.5000	455.726
438.0000	455.896
438.5000	456.099
439.0000	456.222
439.5000	456.279
440.0000	456.538
440.5000	456.829
441.0000	456.955
441.5000	457.222
442.0000	457.337
442.5000	457.416
443.0000	457.631
443.5000	457.833
444.0000	458.016
444.5000	458.137
445.0000	458.377
445.5000	458.526
446.0000	458.668
446.5000	458.89
447.0000	459.043
447.5000	459.239
448.0000	459.421
448.5000	459.604
449.0000	459.734
449.5000	459.917
450.0000	460.123
450.5000	460.264
451.0000	460.477
451.5000	460.575
452.0000	460.76
452.5000	461.009
453.0000	461.187
453.5000	461.361
454.0000	461.498
454.5000	461.659
455.0000	461.907
455.5000	462.099
456.0000	462.384
456.5000	462.561
457.0000	462.741
457.5000	462.893
458.0000	462.916
458.5000	463.015
459.0000	463.102
459.5000	463.382
460.0000	463.625
460.5000	463.781
461.0000	463.895
461.5000	464.005
462.0000	464.184
462.5000	464.412
463.0000	464.598
463.5000	464.686
464.0000	464.813
464.5000	465.006
465.0000	465.288
465.5000	465.535
466.0000	465.781
466.5000	465.879
467.0000	465.962
467.5000	466.069
468.0000	466.198
468.5000	466.363
469.0000	466.586
469.5000	466.802
470.0000	467.014
470.5000	467.184
471.0000	467.265
471.5000	467.487
472.0000	467.684
472.5000	467.87
473.0000	468.091
473.5000	468.255
474.0000	468.322
474.5000	468.548
475.0000	468.636
475.5000	468.748
476.0000	468.899
476.5000	469.071
477.0000	469.321
477.5000	469.508
478.0000	469.625
478.5000	469.707
479.0000	469.866
479.5000	469.992
480.0000	470.205
480.5000	470.483
481.0000	470.706
481.5000	470.901
482.0000	471.043
482.5000	471.17
483.0000	471.392
483.5000	471.522
484.0000	471.709
484.5000	471.916
485.0000	471.971
485.5000	472.128
486.0000	472.397
486.5000	472.477
487.0000	472.638
487.5000	472.835
488.0000	473.001
488.5000	473.157
489.0000	473.3
489.5000	473.542
490.0000	473.605
490.5000	473.787
491.0000	473.922
491.5000	473.997
492.0000	474.187
492.5000	474.369
493.0000	474.585
493.5000	474.844
494.0000	475.013
494.5000	475.193
495.0000	475.356
495.5000	475.454
496.0000	475.582
496.5000	475.819
497.0000	475.947
497.5000	476.034
498.0000	476.232
498.5000	476.309
499.0000	476.366
499.5000	476.579
500.0000	476.713
500.5000	476.908
501.0000	477.155
501.5000	477.255
502.0000	477.468
502.5000	477.557
503.0000	477.836
503.5000	478.101
504.0000	478.207
504.5000	478.409
505.0000	478.561
505.5000	478.714
506.0000	478.914
506.5000	479.057
507.0000	479.194
507.5000	479.342
508.0000	479.482
508.5000	479.632
509.0000	479.819
509.5000	479.9
510.0000	480.051
510.5000	480.25
511.0000	480.384
511.5000	480.568
512.0000	480.785
512.5000	481.056
513.0000	481.249
513.5000	481.507
514.0000	481.681
514.5000	481.737
515.0000	481.897
515.5000	482.032
516.0000	482.018
516.5000	482.174
517.0000	482.375
517.5000	482.503
518.0000	482.818
518.5000	482.961
519.0000	483.108
519.5000	483.249
520.0000	483.422
520.5000	483.617
521.0000	483.693
521.5000	483.924
522.0000	484.049
522.5000	484.219
523.0000	484.317
523.5000	484.41
524.0000	484.523
524.5000	484.603
525.0000	484.817
525.5000	485.053
526.0000	485.2
526.5000	485.355
527.0000	485.598
527.5000	485.772
528.0000	485.935
528.5000	486.087
529.0000	486.182
529.5000	486.293
530.0000	486.574
530.5000	486.694
531.0000	486.858
531.5000	487.092
532.0000	487.137
532.5000	487.458
533.0000	487.62
533.5000	487.618
534.0000	487.754
534.5000	487.877
535.0000	488.051
535.5000	488.27
536.0000	488.58
536.5000	488.749
537.0000	488.878
537.5000	489.067
538.0000	489.133
538.5000	489.139
539.0000	489.309
539.5000	489.527
540.0000	489.715
540.5000	489.965
541.0000	490.182
541.5000	490.234
542.0000	490.251
542.5000	490.348
543.0000	490.49
543.5000	490.702
544.0000	490.957
544.5000	491.166
545.0000	491.257
545.5000	491.343
546.0000	491.408
546.5000	491.523
547.0000	491.585
547.5000	491.81
548.0000	492.033
548.5000	492.236
549.0000	492.394
549.5000	492.494
550.0000	492.741
550.5000	492.878
551.0000	493.079
551.5000	493.27
552.0000	493.329
552.5000	493.405
553.0000	493.522
553.5000	493.607
554.0000	493.754
554.5000	493.982
555.0000	494.095
555.5000	494.259
556.0000	494.469
556.5000	494.726
