TITLE	
DATA TYPE	
ORIGIN	JASCO
OWNER	
DATE	22/04/19
TIME	16:59:11
SPECTROMETER/DATA SYSTEM	
RESOLUTION	
DELTAX	0.5
XUNITS	SEC
YUNITS	INTENSITY
FIRSTX	0.0000
LASTX	2227.0000
NPOINTS	4455
FIRSTY	507.97372
MAXY	507.97372
MINY	-85.97010
XYDATA
0.0000	507.974
0.5000	507.941
1.0000	507.783
1.5000	507.609
2.0000	507.59
2.5000	507.558
3.0000	507.506
3.5000	507.511
4.0000	507.462
4.5000	507.45
5.0000	507.456
5.5000	507.413
6.0000	507.487
6.5000	507.381
7.0000	507.349
7.5000	507.412
8.0000	507.264
8.5000	507.349
9.0000	507.412
9.5000	507.444
10.0000	507.401
10.5000	507.367
11.0000	507.333
11.5000	507.245
12.0000	507.223
12.5000	507.234
13.0000	507.197
13.5000	507.231
14.0000	507.398
14.5000	507.32
15.0000	507.448
15.5000	507.422
16.0000	507.425
16.5000	507.489
17.0000	507.377
17.5000	507.42
18.0000	507.274
18.5000	507.317
19.0000	507.383
19.5000	507.321
20.0000	507.48
20.5000	507.456
21.0000	507.437
21.5000	507.446
22.0000	507.383
22.5000	507.432
23.0000	507.465
23.5000	507.606
24.0000	507.618
24.5000	507.538
25.0000	507.576
25.5000	507.676
26.0000	507.705
26.5000	507.71
27.0000	507.646
27.5000	507.485
28.0000	507.488
28.5000	507.529
29.0000	507.516
29.5000	507.502
30.0000	497.04
30.5000	477.389
31.0000	439.022
31.5000	290.066
32.0000	-85.9701
32.5000	-41.3808
33.0000	-32.9349
33.5000	-30.3198
34.0000	-28.9639
34.5000	-28.0679
35.0000	-27.5225
35.5000	-27.0313
36.0000	-26.7447
36.5000	-26.4696
37.0000	-26.1794
37.5000	-26.0344
38.0000	206.755
38.5000	258.919
39.0000	255.7
39.5000	253.877
40.0000	240.619
40.5000	233.858
41.0000	233.344
41.5000	233.175
42.0000	233.157
42.5000	233.111
43.0000	233.043
43.5000	233.048
44.0000	233.048
44.5000	233.021
45.0000	233.041
45.5000	233.062
46.0000	233.046
46.5000	233.093
47.0000	233.129
47.5000	233.086
48.0000	233.115
48.5000	233.087
49.0000	233.087
49.5000	233.178
50.0000	233.178
50.5000	233.202
51.0000	233.192
51.5000	233.186
52.0000	233.221
52.5000	233.265
53.0000	233.407
53.5000	233.501
54.0000	233.57
54.5000	233.661
55.0000	233.664
55.5000	233.703
56.0000	233.771
56.5000	233.827
57.0000	233.909
57.5000	233.954
58.0000	233.977
58.5000	233.998
59.0000	234.036
59.5000	234.015
60.0000	234.043
60.5000	234.13
61.0000	234.171
61.5000	234.284
62.0000	234.28
62.5000	234.293
63.0000	234.286
63.5000	234.248
64.0000	234.303
64.5000	234.368
65.0000	234.407
65.5000	234.526
66.0000	234.627
66.5000	234.6
67.0000	234.664
67.5000	234.661
68.0000	234.657
68.5000	234.736
69.0000	234.779
69.5000	234.824
70.0000	234.858
70.5000	234.897
71.0000	234.965
71.5000	235.023
72.0000	235.069
72.5000	235.071
73.0000	235.088
73.5000	235.088
74.0000	235.108
74.5000	235.196
75.0000	235.239
75.5000	235.269
76.0000	235.33
76.5000	235.362
77.0000	235.393
77.5000	235.419
78.0000	235.476
78.5000	235.501
79.0000	235.526
79.5000	235.613
80.0000	235.649
80.5000	235.699
81.0000	235.711
81.5000	235.761
82.0000	235.799
82.5000	235.861
83.0000	235.898
83.5000	235.935
84.0000	235.962
84.5000	235.991
85.0000	236.103
85.5000	236.186
86.0000	236.184
86.5000	236.176
87.0000	236.176
87.5000	236.209
88.0000	236.318
88.5000	236.379
89.0000	236.457
89.5000	236.463
90.0000	236.466
90.5000	236.483
91.0000	236.49
91.5000	236.572
92.0000	236.635
92.5000	236.719
93.0000	236.836
93.5000	236.852
94.0000	236.848
94.5000	236.895
95.0000	236.919
95.5000	236.885
96.0000	236.956
96.5000	236.96
97.0000	236.949
97.5000	237.042
98.0000	237.061
98.5000	237.138
99.0000	237.161
99.5000	237.206
100.0000	237.319
100.5000	237.375
101.0000	237.458
101.5000	237.527
102.0000	237.545
102.5000	237.594
103.0000	237.645
103.5000	237.694
104.0000	237.742
104.5000	237.776
105.0000	237.842
105.5000	237.867
106.0000	237.911
106.5000	237.946
107.0000	237.943
107.5000	237.988
108.0000	238.05
108.5000	238.088
109.0000	238.12
109.5000	238.182
110.0000	238.244
110.5000	238.307
111.0000	238.361
111.5000	238.379
112.0000	238.41
112.5000	238.425
113.0000	238.45
113.5000	238.526
114.0000	238.524
114.5000	238.603
115.0000	238.72
115.5000	238.726
116.0000	238.801
116.5000	238.889
117.0000	238.873
117.5000	238.933
118.0000	238.992
118.5000	238.975
119.0000	239.085
119.5000	239.114
120.0000	239.179
120.5000	239.187
121.0000	239.197
121.5000	239.28
122.0000	239.3
122.5000	239.405
123.0000	239.467
123.5000	239.466
124.0000	239.507
124.5000	239.499
125.0000	239.503
125.5000	239.587
126.0000	239.659
126.5000	239.694
127.0000	239.787
127.5000	239.869
128.0000	239.865
128.5000	239.981
129.0000	239.966
129.5000	239.952
130.0000	240.027
130.5000	240.026
131.0000	240.08
131.5000	240.127
132.0000	240.159
132.5000	240.212
133.0000	240.299
133.5000	240.34
134.0000	240.372
134.5000	240.398
135.0000	240.369
135.5000	240.424
136.0000	240.462
136.5000	240.508
137.0000	240.599
137.5000	240.652
138.0000	240.721
138.5000	240.743
139.0000	240.749
139.5000	240.763
140.0000	240.771
140.5000	240.896
141.0000	240.993
141.5000	241.071
142.0000	241.135
142.5000	241.138
143.0000	241.183
143.5000	241.242
144.0000	241.311
144.5000	241.418
145.0000	241.461
145.5000	241.445
146.0000	241.453
146.5000	241.464
147.0000	241.456
147.5000	241.566
148.0000	241.629
148.5000	241.67
149.0000	241.75
149.5000	241.789
150.0000	241.814
150.5000	241.827
151.0000	241.862
151.5000	241.857
152.0000	241.921
152.5000	241.957
153.0000	241.991
153.5000	242.046
154.0000	242.083
154.5000	242.158
155.0000	242.2
155.5000	242.2
156.0000	242.257
156.5000	242.276
157.0000	242.296
157.5000	242.322
158.0000	242.375
158.5000	242.405
159.0000	242.402
159.5000	242.522
160.0000	242.52
160.5000	242.59
161.0000	242.695
161.5000	242.707
162.0000	242.777
162.5000	242.809
163.0000	242.923
163.5000	242.967
164.0000	243.019
164.5000	243.159
165.0000	243.208
165.5000	243.253
166.0000	243.318
166.5000	243.292
167.0000	243.253
167.5000	243.313
168.0000	243.321
168.5000	243.323
169.0000	243.377
169.5000	243.449
170.0000	243.466
170.5000	243.46
171.0000	243.56
171.5000	243.569
172.0000	243.616
172.5000	243.723
173.0000	243.753
173.5000	243.84
174.0000	243.893
174.5000	243.926
175.0000	243.977
175.5000	243.996
176.0000	244.025
176.5000	244.104
177.0000	244.107
177.5000	244.157
178.0000	244.199
178.5000	244.154
179.0000	244.201
179.5000	244.193
180.0000	244.27
180.5000	244.396
181.0000	244.443
181.5000	244.526
182.0000	244.563
182.5000	244.601
183.0000	244.609
183.5000	244.657
184.0000	244.696
184.5000	244.699
185.0000	244.771
185.5000	244.76
186.0000	244.805
186.5000	244.848
187.0000	244.883
187.5000	244.934
188.0000	244.999
188.5000	245.031
189.0000	245.127
189.5000	245.191
190.0000	245.209
190.5000	245.245
191.0000	245.239
191.5000	245.271
192.0000	245.328
192.5000	245.405
193.0000	245.44
193.5000	245.49
194.0000	245.568
194.5000	245.538
195.0000	245.597
195.5000	245.659
196.0000	245.617
196.5000	245.723
197.0000	245.775
197.5000	245.807
198.0000	245.878
198.5000	245.904
199.0000	245.875
199.5000	245.888
200.0000	245.966
200.5000	246.042
201.0000	246.071
201.5000	246.119
202.0000	246.093
202.5000	246.068
203.0000	246.168
203.5000	246.207
204.0000	246.262
204.5000	246.342
205.0000	246.372
205.5000	246.401
206.0000	246.457
206.5000	246.474
207.0000	246.471
207.5000	246.529
208.0000	246.587
208.5000	246.716
209.0000	246.819
209.5000	246.866
210.0000	246.812
210.5000	246.774
211.0000	246.828
211.5000	246.818
212.0000	246.912
212.5000	247.009
213.0000	247.037
213.5000	247.099
214.0000	247.139
214.5000	247.123
215.0000	247.132
215.5000	247.159
216.0000	247.238
216.5000	247.302
217.0000	247.328
217.5000	247.422
218.0000	247.458
218.5000	247.441
219.0000	247.473
219.5000	247.501
220.0000	247.497
220.5000	247.603
221.0000	247.672
221.5000	247.684
222.0000	247.734
222.5000	247.739
223.0000	247.791
223.5000	247.879
224.0000	247.907
224.5000	247.913
225.0000	247.953
225.5000	247.95
226.0000	248.007
226.5000	248.055
227.0000	248.082
227.5000	248.131
228.0000	248.133
228.5000	248.238
229.0000	248.254
229.5000	248.285
230.0000	248.4
230.5000	248.408
231.0000	248.431
231.5000	248.45
232.0000	248.433
232.5000	248.441
233.0000	248.484
233.5000	248.523
234.0000	248.544
234.5000	248.65
235.0000	248.672
235.5000	248.747
236.0000	248.785
236.5000	248.785
237.0000	248.87
237.5000	248.918
238.0000	248.955
238.5000	249.007
239.0000	249.085
239.5000	249.086
240.0000	249.154
240.5000	249.182
241.0000	249.186
241.5000	249.193
242.0000	249.223
242.5000	249.23
243.0000	249.223
243.5000	249.298
244.0000	249.361
244.5000	249.438
245.0000	249.484
245.5000	249.535
246.0000	249.541
246.5000	249.536
247.0000	249.608
247.5000	249.583
248.0000	249.559
248.5000	249.622
249.0000	249.639
249.5000	249.755
250.0000	249.857
250.5000	249.901
251.0000	249.915
251.5000	249.89
252.0000	249.906
252.5000	249.919
253.0000	249.996
253.5000	250.033
254.0000	250.133
254.5000	250.158
255.0000	250.219
255.5000	250.321
256.0000	250.322
256.5000	250.369
257.0000	250.367
257.5000	250.377
258.0000	250.399
258.5000	250.433
259.0000	250.491
259.5000	250.483
260.0000	250.549
260.5000	250.593
261.0000	250.608
261.5000	250.656
262.0000	250.675
262.5000	250.689
263.0000	250.703
263.5000	250.77
264.0000	250.84
264.5000	250.873
265.0000	250.966
265.5000	250.993
266.0000	250.991
266.5000	251.087
267.0000	251.074
267.5000	251.126
268.0000	251.176
268.5000	251.205
269.0000	251.273
269.5000	251.3
270.0000	251.371
270.5000	251.406
271.0000	251.426
271.5000	251.463
272.0000	251.457
272.5000	251.493
273.0000	251.548
273.5000	251.583
274.0000	251.618
274.5000	251.613
275.0000	251.65
275.5000	251.704
276.0000	251.754
276.5000	251.806
277.0000	251.859
277.5000	251.829
278.0000	251.836
278.5000	251.875
279.0000	251.874
279.5000	251.941
280.0000	251.993
280.5000	252.045
281.0000	252.063
281.5000	252.101
282.0000	252.137
282.5000	252.199
283.0000	252.252
283.5000	252.266
284.0000	252.318
284.5000	252.319
285.0000	252.33
285.5000	252.4
286.0000	252.42
286.5000	252.43
287.0000	252.463
287.5000	252.492
288.0000	252.519
288.5000	252.527
289.0000	252.616
289.5000	252.633
290.0000	252.631
290.5000	252.712
291.0000	252.671
291.5000	252.752
292.0000	252.837
292.5000	252.866
293.0000	252.925
293.5000	252.912
294.0000	252.972
294.5000	253.021
295.0000	253.065
295.5000	253.149
296.0000	253.141
296.5000	253.153
297.0000	253.258
297.5000	253.266
298.0000	253.289
298.5000	253.322
299.0000	253.285
299.5000	253.289
300.0000	253.365
300.5000	253.452
301.0000	253.497
301.5000	253.566
302.0000	253.6
302.5000	253.596
303.0000	253.633
303.5000	253.656
304.0000	253.663
304.5000	253.713
305.0000	253.838
305.5000	253.898
306.0000	253.928
306.5000	253.957
307.0000	253.871
307.5000	253.911
308.0000	253.95
308.5000	253.989
309.0000	254.084
309.5000	254.09
310.0000	254.104
310.5000	254.084
311.0000	254.104
311.5000	254.107
312.0000	254.161
312.5000	254.24
313.0000	254.24
313.5000	254.315
314.0000	254.321
314.5000	254.374
315.0000	254.446
315.5000	254.472
316.0000	254.542
316.5000	254.531
317.0000	254.549
317.5000	254.596
318.0000	254.653
318.5000	254.727
319.0000	254.72
319.5000	254.781
320.0000	254.782
320.5000	254.805
321.0000	254.836
321.5000	254.844
322.0000	254.828
322.5000	254.869
323.0000	254.916
323.5000	254.936
324.0000	255.018
324.5000	255.025
325.0000	255.093
325.5000	255.159
326.0000	255.177
326.5000	255.211
327.0000	255.22
327.5000	255.209
328.0000	255.266
328.5000	255.319
329.0000	255.39
329.5000	255.423
330.0000	255.444
330.5000	255.476
331.0000	255.514
331.5000	255.553
332.0000	255.588
332.5000	255.619
333.0000	255.646
333.5000	255.7
334.0000	255.788
334.5000	255.816
335.0000	255.816
335.5000	255.835
336.0000	255.834
336.5000	255.865
337.0000	255.933
337.5000	255.974
338.0000	256.014
338.5000	256.043
339.0000	256.07
339.5000	256.065
340.0000	256.009
340.5000	256.066
341.0000	256.075
341.5000	256.121
342.0000	256.205
342.5000	256.184
343.0000	256.211
343.5000	256.291
344.0000	256.351
344.5000	256.408
345.0000	256.472
345.5000	256.538
346.0000	256.529
346.5000	256.593
347.0000	256.638
347.5000	256.571
348.0000	256.66
348.5000	256.685
349.0000	256.715
349.5000	256.801
350.0000	256.824
350.5000	256.851
351.0000	256.841
351.5000	256.92
352.0000	256.939
352.5000	256.999
353.0000	257.056
353.5000	257.045
354.0000	257.054
354.5000	257.034
355.0000	257.073
355.5000	257.129
356.0000	257.21
356.5000	257.264
357.0000	257.321
357.5000	257.349
358.0000	257.354
358.5000	257.359
359.0000	257.377
359.5000	257.405
360.0000	257.437
360.5000	257.529
361.0000	257.548
361.5000	257.57
362.0000	257.572
362.5000	257.589
363.0000	257.598
363.5000	257.63
364.0000	257.78
364.5000	257.805
365.0000	257.858
365.5000	257.915
366.0000	257.869
366.5000	257.915
367.0000	257.976
367.5000	258.002
368.0000	258.008
368.5000	258.016
369.0000	258.076
369.5000	258.079
370.0000	258.158
370.5000	258.208
371.0000	258.226
371.5000	258.254
372.0000	258.273
372.5000	258.322
373.0000	258.353
373.5000	258.391
374.0000	258.447
374.5000	258.481
375.0000	258.508
375.5000	258.556
376.0000	258.583
376.5000	258.596
377.0000	258.607
377.5000	258.623
378.0000	258.602
378.5000	258.654
379.0000	258.645
379.5000	258.747
380.0000	258.867
380.5000	258.89
381.0000	258.948
381.5000	258.974
382.0000	258.976
382.5000	259.019
383.0000	259.063
383.5000	259.04
384.0000	259.108
384.5000	259.16
385.0000	259.187
385.5000	259.198
386.0000	259.174
386.5000	259.185
387.0000	259.212
387.5000	259.287
388.0000	259.324
388.5000	259.325
389.0000	259.379
389.5000	259.386
390.0000	259.448
390.5000	259.528
391.0000	259.505
391.5000	259.54
392.0000	259.523
392.5000	259.553
393.0000	259.629
393.5000	259.676
394.0000	259.728
394.5000	259.713
395.0000	259.725
395.5000	259.703
396.0000	259.713
396.5000	259.841
397.0000	259.862
397.5000	259.924
398.0000	259.977
398.5000	259.978
399.0000	260.069
399.5000	260.133
400.0000	260.176
400.5000	260.161
401.0000	260.191
401.5000	260.223
402.0000	260.284
402.5000	260.299
403.0000	260.32
403.5000	260.292
404.0000	260.306
404.5000	260.331
405.0000	260.34
405.5000	260.41
406.0000	260.423
406.5000	260.549
407.0000	260.587
407.5000	260.585
408.0000	260.676
408.5000	260.672
409.0000	260.749
409.5000	260.831
410.0000	260.817
410.5000	260.868
411.0000	260.809
411.5000	260.807
412.0000	260.847
412.5000	260.832
413.0000	260.948
413.5000	261.038
414.0000	261.105
414.5000	261.157
415.0000	261.122
415.5000	261.123
416.0000	261.121
416.5000	261.114
417.0000	261.191
417.5000	261.218
418.0000	261.227
418.5000	261.263
419.0000	261.296
419.5000	261.343
420.0000	261.373
420.5000	261.429
421.0000	261.502
421.5000	261.495
422.0000	261.566
422.5000	261.53
423.0000	261.522
423.5000	261.586
424.0000	261.613
424.5000	261.717
425.0000	261.746
425.5000	261.782
426.0000	261.748
426.5000	261.737
427.0000	261.743
427.5000	261.744
428.0000	261.809
428.5000	261.885
429.0000	261.9
429.5000	261.949
430.0000	262.016
430.5000	262.082
431.0000	262.129
431.5000	262.125
432.0000	262.137
432.5000	262.168
433.0000	262.281
433.5000	262.324
434.0000	262.305
434.5000	262.301
435.0000	262.261
435.5000	262.296
436.0000	262.366
436.5000	262.408
437.0000	262.456
437.5000	262.575
438.0000	262.605
438.5000	262.614
439.0000	262.65
439.5000	262.623
440.0000	262.637
440.5000	262.653
441.0000	262.684
441.5000	262.723
442.0000	262.798
442.5000	262.806
443.0000	262.783
443.5000	262.8
444.0000	262.838
444.5000	262.888
445.0000	263.012
445.5000	263.016
446.0000	263.017
446.5000	263.039
447.0000	263.005
447.5000	263.064
448.0000	263.107
448.5000	263.154
449.0000	263.227
449.5000	263.28
450.0000	263.28
450.5000	263.343
451.0000	263.351
451.5000	263.37
452.0000	263.416
452.5000	263.399
453.0000	263.419
453.5000	263.433
454.0000	263.517
454.5000	263.565
455.0000	263.581
455.5000	263.651
456.0000	263.645
456.5000	263.727
457.0000	263.807
457.5000	263.824
458.0000	263.84
458.5000	263.838
459.0000	263.849
459.5000	263.844
460.0000	263.857
460.5000	263.864
461.0000	263.927
461.5000	264.019
462.0000	264.036
462.5000	264.108
463.0000	264.102
463.5000	264.097
464.0000	264.173
464.5000	264.179
465.0000	264.183
465.5000	264.154
466.0000	264.182
466.5000	264.179
467.0000	264.245
467.5000	264.309
468.0000	264.338
468.5000	264.37
469.0000	264.418
469.5000	264.445
470.0000	264.427
470.5000	264.48
471.0000	264.468
471.5000	264.531
472.0000	264.621
472.5000	264.641
473.0000	264.682
473.5000	264.705
474.0000	264.724
474.5000	264.743
475.0000	264.797
475.5000	264.832
476.0000	264.889
476.5000	264.963
477.0000	264.984
477.5000	264.97
478.0000	264.91
478.5000	264.913
479.0000	264.904
479.5000	264.994
480.0000	265.07
480.5000	265.082
481.0000	265.103
481.5000	265.104
482.0000	265.087
482.5000	265.148
483.0000	265.206
483.5000	265.244
484.0000	265.337
484.5000	265.371
485.0000	265.409
485.5000	265.445
486.0000	265.5
486.5000	265.482
487.0000	265.523
487.5000	265.539
488.0000	265.464
488.5000	265.543
489.0000	265.526
489.5000	265.529
490.0000	265.602
490.5000	265.611
491.0000	265.677
491.5000	265.743
492.0000	265.734
492.5000	265.804
493.0000	265.822
493.5000	265.855
494.0000	265.973
494.5000	265.97
495.0000	266.023
495.5000	266.079
496.0000	266.073
496.5000	266.041
497.0000	266.069
497.5000	266.107
498.0000	266.164
498.5000	266.271
499.0000	266.248
499.5000	266.215
500.0000	266.241
500.5000	266.219
501.0000	266.266
501.5000	266.312
502.0000	266.302
502.5000	266.35
503.0000	266.404
503.5000	266.413
504.0000	266.454
504.5000	266.483
505.0000	266.503
505.5000	266.547
506.0000	266.581
506.5000	266.636
507.0000	266.652
507.5000	266.68
508.0000	266.723
508.5000	266.723
509.0000	266.775
509.5000	266.806
510.0000	266.837
510.5000	266.869
511.0000	266.883
511.5000	266.954
512.0000	266.976
512.5000	266.999
513.0000	266.995
513.5000	266.982
514.0000	267.01
514.5000	267.067
515.0000	267.125
515.5000	267.155
516.0000	267.226
516.5000	267.246
517.0000	267.277
517.5000	267.32
518.0000	267.327
518.5000	267.357
519.0000	267.363
519.5000	267.349
520.0000	267.335
520.5000	267.402
521.0000	267.443
521.5000	267.505
522.0000	267.556
522.5000	267.531
523.0000	267.591
523.5000	267.597
524.0000	267.618
524.5000	267.665
525.0000	267.662
525.5000	267.724
526.0000	267.777
526.5000	267.797
527.0000	267.863
527.5000	267.876
528.0000	267.883
528.5000	267.943
529.0000	267.997
529.5000	268.015
530.0000	268.003
530.5000	267.999
531.0000	268.035
531.5000	268.077
532.0000	268.156
532.5000	268.232
533.0000	268.16
533.5000	268.219
534.0000	268.221
534.5000	268.2
535.0000	268.278
535.5000	268.244
536.0000	268.279
536.5000	268.366
537.0000	268.415
537.5000	268.477
538.0000	268.511
538.5000	268.455
539.0000	268.458
539.5000	268.522
540.0000	268.551
540.5000	268.635
541.0000	268.685
541.5000	268.733
542.0000	268.753
542.5000	268.8
543.0000	268.869
543.5000	268.85
544.0000	268.943
544.5000	268.941
545.0000	268.887
545.5000	268.877
546.0000	268.862
546.5000	268.922
547.0000	268.991
547.5000	269.077
548.0000	269.061
548.5000	269.041
549.0000	269.108
549.5000	269.105
550.0000	269.192
550.5000	269.208
551.0000	269.169
551.5000	269.24
552.0000	269.267
552.5000	269.288
553.0000	269.366
553.5000	269.355
554.0000	269.355
554.5000	269.385
555.0000	269.438
555.5000	269.498
556.0000	269.535
556.5000	269.66
