TITLE	
DATA TYPE	
ORIGIN	JASCO
OWNER	
DATE	22/04/19
TIME	20:53:44
SPECTROMETER/DATA SYSTEM	
RESOLUTION	
DELTAX	0.5
XUNITS	SEC
YUNITS	INTENSITY
FIRSTX	0.0000
LASTX	5000.0000
NPOINTS	10001
FIRSTY	441.84091
MAXY	463.57977
MINY	-70.05135
XYDATA
0.0000	441.841
0.5000	441.773
1.0000	441.809
1.5000	441.755
2.0000	441.763
2.5000	441.873
3.0000	441.891
3.5000	441.889
4.0000	441.954
4.5000	442.013
5.0000	442.037
5.5000	442.092
6.0000	442.139
6.5000	442.188
7.0000	442.303
7.5000	442.337
8.0000	442.345
8.5000	442.4
9.0000	442.377
9.5000	442.475
10.0000	442.47
10.5000	442.38
11.0000	442.355
11.5000	442.241
12.0000	442.319
12.5000	442.299
13.0000	442.327
13.5000	442.474
14.0000	442.471
14.5000	442.712
15.0000	429.585
15.5000	410.019
16.0000	367.726
16.5000	150.507
17.0000	-70.0514
17.5000	-38.4985
18.0000	-32.1827
18.5000	-29.9604
19.0000	-28.7862
19.5000	-28.1013
20.0000	-27.3752
20.5000	-26.8518
21.0000	-26.6414
21.5000	-26.2246
22.0000	-26.0294
22.5000	241.982
23.0000	229.878
23.5000	227.313
24.0000	226.059
24.5000	207.389
25.0000	208.217
25.5000	208.177
26.0000	208.125
26.5000	208.147
27.0000	208.167
27.5000	208.238
28.0000	208.328
28.5000	208.419
29.0000	208.5
29.5000	208.634
30.0000	208.758
30.5000	208.855
31.0000	208.993
31.5000	209.106
32.0000	209.218
32.5000	209.299
33.0000	209.45
33.5000	209.563
34.0000	209.645
34.5000	209.787
35.0000	209.879
35.5000	209.988
36.0000	210.168
36.5000	210.287
37.0000	210.406
37.5000	210.526
38.0000	210.628
38.5000	210.722
39.0000	210.84
39.5000	210.921
40.0000	210.985
40.5000	211.076
41.0000	211.133
41.5000	211.255
42.0000	211.432
42.5000	211.502
43.0000	211.658
43.5000	211.77
44.0000	211.815
44.5000	211.974
45.0000	212.094
45.5000	212.206
46.0000	212.313
46.5000	212.427
47.0000	212.5
47.5000	212.625
48.0000	212.741
48.5000	212.84
49.0000	212.926
49.5000	213.022
50.0000	213.115
50.5000	213.247
51.0000	213.38
51.5000	213.501
52.0000	213.643
52.5000	213.743
53.0000	213.884
53.5000	214.072
54.0000	214.224
54.5000	214.371
55.0000	214.517
55.5000	214.577
56.0000	214.733
56.5000	214.855
57.0000	214.956
57.5000	215.091
58.0000	215.175
58.5000	215.348
59.0000	215.434
59.5000	215.521
60.0000	215.617
60.5000	215.667
61.0000	215.824
61.5000	215.932
62.0000	216.045
62.5000	216.126
63.0000	216.23
63.5000	216.393
64.0000	216.465
64.5000	216.621
65.0000	216.725
65.5000	216.847
66.0000	217.044
66.5000	217.164
67.0000	217.315
67.5000	217.447
68.0000	217.523
68.5000	217.604
69.0000	217.694
69.5000	217.764
70.0000	217.893
70.5000	218.007
71.0000	218.101
71.5000	218.226
72.0000	218.335
72.5000	218.517
73.0000	218.677
73.5000	218.801
74.0000	218.915
74.5000	218.969
75.0000	219.087
75.5000	219.18
76.0000	219.32
76.5000	219.45
77.0000	219.527
77.5000	219.679
78.0000	219.792
78.5000	219.923
79.0000	220.023
79.5000	220.121
80.0000	220.24
80.5000	220.37
81.0000	220.543
81.5000	220.647
82.0000	220.761
82.5000	220.905
83.0000	221.039
83.5000	221.168
84.0000	221.272
84.5000	221.374
85.0000	221.457
85.5000	221.546
86.0000	221.699
86.5000	221.847
87.0000	221.998
87.5000	222.137
88.0000	222.221
88.5000	222.336
89.0000	222.483
89.5000	222.603
90.0000	222.74
90.5000	222.838
91.0000	222.946
91.5000	223.116
92.0000	223.215
92.5000	223.328
93.0000	223.445
93.5000	223.577
94.0000	223.716
94.5000	223.835
95.0000	223.935
95.5000	224.009
96.0000	224.149
96.5000	224.303
97.0000	224.462
97.5000	224.565
98.0000	224.685
98.5000	224.78
99.0000	224.852
99.5000	224.975
100.0000	225.083
100.5000	225.234
101.0000	225.381
101.5000	225.542
102.0000	225.652
102.5000	225.773
103.0000	225.876
103.5000	225.965
104.0000	226.131
104.5000	226.234
105.0000	226.336
105.5000	226.456
106.0000	226.52
106.5000	226.651
107.0000	226.806
107.5000	226.937
108.0000	227.105
108.5000	227.203
109.0000	227.33
109.5000	227.499
110.0000	227.611
110.5000	227.69
111.0000	227.778
111.5000	227.846
112.0000	227.966
112.5000	228.149
113.0000	228.269
113.5000	228.41
114.0000	228.492
114.5000	228.629
115.0000	228.799
115.5000	228.935
116.0000	229.079
116.5000	229.154
117.0000	229.248
117.5000	229.315
118.0000	229.417
118.5000	229.543
119.0000	229.689
119.5000	229.818
120.0000	230.01
120.5000	230.19
121.0000	230.272
121.5000	230.391
122.0000	230.461
122.5000	230.526
123.0000	230.651
123.5000	230.776
124.0000	230.891
124.5000	230.999
125.0000	231.101
125.5000	231.223
126.0000	231.356
126.5000	231.517
127.0000	231.676
127.5000	231.823
128.0000	231.93
128.5000	232.036
129.0000	232.15
129.5000	232.243
130.0000	232.366
130.5000	232.477
131.0000	232.615
131.5000	232.771
132.0000	232.901
132.5000	233.014
133.0000	233.094
133.5000	233.19
134.0000	233.311
134.5000	233.437
135.0000	233.596
135.5000	233.783
136.0000	233.916
136.5000	234.051
137.0000	234.13
137.5000	234.201
138.0000	234.298
138.5000	234.418
139.0000	234.539
139.5000	234.631
140.0000	234.736
140.5000	234.844
141.0000	234.958
141.5000	235.079
142.0000	235.183
142.5000	235.305
143.0000	235.45
143.5000	235.551
144.0000	235.627
144.5000	235.724
145.0000	235.844
145.5000	235.923
146.0000	236.109
146.5000	236.239
147.0000	236.38
147.5000	236.516
148.0000	236.633
148.5000	236.769
149.0000	236.817
149.5000	236.979
150.0000	237.022
150.5000	237.065
151.0000	237.179
151.5000	237.326
152.0000	237.488
152.5000	237.651
153.0000	237.725
153.5000	237.785
154.0000	237.943
154.5000	238.036
155.0000	238.233
155.5000	238.393
156.0000	238.448
156.5000	238.569
157.0000	238.72
157.5000	238.738
158.0000	238.889
158.5000	239.023
159.0000	239.029
159.5000	239.169
160.0000	239.276
160.5000	239.34
161.0000	239.457
161.5000	239.559
162.0000	239.643
162.5000	239.724
163.0000	239.897
163.5000	240.006
164.0000	240.147
164.5000	240.312
165.0000	240.37
165.5000	240.462
166.0000	240.571
166.5000	240.64
167.0000	240.773
167.5000	240.908
168.0000	240.959
168.5000	241.068
169.0000	241.134
169.5000	241.244
170.0000	241.404
170.5000	241.553
171.0000	241.695
171.5000	241.77
172.0000	241.836
172.5000	241.958
173.0000	242.05
173.5000	242.209
174.0000	242.343
174.5000	242.478
175.0000	242.594
175.5000	242.687
176.0000	242.775
176.5000	242.848
177.0000	242.966
177.5000	243.113
178.0000	243.225
178.5000	243.278
179.0000	243.391
179.5000	243.482
180.0000	243.576
180.5000	243.705
181.0000	243.821
181.5000	243.885
182.0000	244.02
182.5000	244.134
183.0000	244.224
183.5000	244.359
184.0000	244.415
184.5000	244.552
185.0000	244.637
185.5000	244.758
186.0000	244.971
186.5000	245.042
187.0000	245.194
187.5000	245.254
188.0000	245.296
188.5000	245.417
189.0000	245.47
189.5000	245.587
190.0000	245.735
190.5000	245.824
191.0000	245.971
191.5000	246.125
192.0000	246.189
192.5000	246.286
193.0000	246.401
193.5000	246.464
194.0000	246.589
194.5000	246.658
195.0000	246.711
195.5000	246.851
196.0000	246.921
196.5000	247.123
197.0000	247.267
197.5000	247.35
198.0000	247.431
198.5000	247.545
199.0000	247.603
199.5000	247.691
200.0000	247.82
200.5000	247.86
201.0000	247.994
201.5000	248.118
202.0000	248.216
202.5000	248.302
203.0000	248.407
203.5000	248.497
204.0000	248.589
204.5000	248.726
205.0000	248.866
205.5000	248.948
206.0000	249.063
206.5000	249.183
207.0000	249.242
207.5000	249.396
208.0000	249.502
208.5000	249.543
209.0000	249.646
209.5000	249.718
210.0000	249.82
210.5000	249.955
211.0000	250.013
211.5000	250.099
212.0000	250.208
212.5000	250.277
213.0000	250.408
213.5000	250.549
214.0000	250.627
214.5000	250.782
215.0000	250.899
215.5000	250.951
216.0000	251.083
216.5000	251.182
217.0000	251.296
217.5000	251.46
218.0000	251.538
218.5000	251.662
219.0000	251.763
219.5000	251.82
220.0000	251.913
220.5000	251.963
221.0000	252.046
221.5000	252.183
222.0000	252.273
222.5000	252.359
223.0000	252.471
223.5000	252.588
224.0000	252.741
224.5000	252.822
225.0000	252.899
225.5000	252.99
226.0000	253.069
226.5000	253.198
227.0000	253.304
227.5000	253.325
228.0000	253.45
228.5000	253.598
229.0000	253.703
229.5000	253.837
230.0000	253.881
230.5000	253.886
231.0000	254.012
231.5000	254.103
232.0000	254.184
232.5000	254.378
233.0000	254.416
233.5000	254.536
234.0000	254.676
234.5000	254.74
235.0000	254.816
235.5000	254.897
236.0000	254.964
236.5000	255.107
237.0000	255.248
237.5000	255.33
238.0000	255.458
238.5000	255.498
239.0000	255.563
239.5000	255.642
240.0000	255.743
240.5000	255.853
241.0000	256.025
241.5000	256.104
242.0000	256.196
242.5000	256.26
243.0000	256.337
243.5000	256.465
244.0000	256.529
244.5000	256.609
245.0000	256.666
245.5000	256.78
246.0000	256.897
246.5000	256.975
247.0000	257.138
247.5000	257.185
248.0000	257.278
248.5000	257.394
249.0000	257.394
249.5000	257.54
250.0000	257.637
250.5000	257.769
251.0000	257.914
251.5000	257.966
252.0000	258.085
252.5000	258.163
253.0000	258.234
253.5000	258.371
254.0000	258.466
254.5000	258.536
255.0000	258.624
255.5000	258.73
256.0000	258.856
256.5000	258.956
257.0000	259.038
257.5000	259.053
258.0000	259.059
258.5000	259.184
259.0000	259.239
259.5000	259.346
260.0000	259.46
260.5000	259.536
261.0000	259.661
261.5000	259.783
262.0000	259.898
262.5000	260.006
263.0000	260.114
263.5000	260.178
264.0000	260.278
264.5000	260.371
265.0000	260.437
265.5000	260.556
266.0000	260.599
266.5000	260.673
267.0000	260.828
267.5000	260.909
268.0000	261.042
268.5000	261.132
269.0000	261.182
269.5000	261.347
270.0000	261.381
270.5000	261.518
271.0000	261.6
271.5000	261.631
272.0000	261.787
272.5000	261.864
273.0000	261.971
273.5000	262.09
274.0000	262.145
274.5000	262.222
275.0000	262.363
275.5000	262.488
276.0000	262.588
276.5000	262.672
277.0000	262.765
277.5000	262.823
278.0000	262.955
278.5000	263.047
279.0000	263.111
279.5000	263.2
280.0000	263.246
280.5000	263.408
281.0000	263.437
281.5000	263.515
282.0000	263.604
282.5000	263.569
283.0000	263.719
283.5000	263.788
284.0000	263.878
284.5000	264.063
285.0000	264.159
285.5000	264.267
286.0000	264.405
286.5000	264.473
287.0000	264.55
287.5000	264.64
288.0000	264.709
288.5000	264.772
289.0000	264.853
289.5000	264.943
290.0000	265.039
290.5000	265.152
291.0000	265.228
291.5000	265.292
292.0000	265.403
292.5000	265.506
293.0000	265.617
293.5000	265.697
294.0000	265.736
294.5000	265.797
295.0000	265.886
295.5000	265.955
296.0000	266.022
296.5000	266.151
297.0000	266.21
297.5000	266.368
298.0000	266.5
298.5000	266.536
299.0000	266.658
299.5000	266.699
300.0000	266.79
300.5000	266.86
301.0000	267.003
301.5000	267.134
302.0000	267.189
302.5000	267.272
303.0000	267.378
303.5000	267.439
304.0000	267.553
304.5000	267.689
305.0000	267.721
305.5000	267.79
306.0000	267.863
306.5000	267.99
307.0000	268.161
307.5000	268.286
308.0000	268.398
308.5000	268.452
309.0000	268.428
309.5000	268.508
310.0000	268.597
310.5000	268.718
311.0000	268.827
311.5000	268.902
312.0000	268.939
312.5000	268.992
313.0000	269.113
313.5000	269.256
314.0000	269.402
314.5000	269.439
315.0000	269.489
315.5000	269.523
316.0000	269.572
316.5000	269.656
317.0000	269.764
317.5000	269.85
318.0000	269.973
318.5000	270.062
319.0000	270.145
319.5000	270.275
320.0000	270.29
320.5000	270.431
321.0000	270.49
321.5000	270.548
322.0000	270.721
322.5000	270.773
323.0000	270.897
323.5000	270.99
324.0000	271.033
324.5000	271.148
325.0000	271.19
325.5000	271.328
326.0000	271.435
326.5000	271.49
327.0000	271.581
327.5000	271.611
328.0000	271.674
328.5000	271.784
329.0000	271.882
329.5000	271.965
330.0000	272.07
330.5000	272.167
331.0000	272.191
331.5000	272.263
332.0000	272.377
332.5000	272.43
333.0000	272.588
333.5000	272.713
334.0000	272.756
334.5000	272.849
335.0000	272.888
335.5000	272.976
336.0000	273.104
336.5000	273.208
337.0000	273.316
337.5000	273.391
338.0000	273.442
338.5000	273.525
339.0000	273.634
339.5000	273.651
340.0000	273.712
340.5000	273.769
341.0000	273.808
341.5000	273.929
342.0000	274.049
342.5000	274.166
343.0000	274.251
343.5000	274.343
344.0000	274.404
344.5000	274.419
345.0000	274.511
345.5000	274.595
346.0000	274.685
346.5000	274.868
347.0000	274.986
347.5000	275.1
348.0000	275.138
348.5000	275.186
349.0000	275.218
349.5000	275.319
350.0000	275.468
350.5000	275.621
351.0000	275.716
351.5000	275.707
352.0000	275.764
352.5000	275.825
353.0000	275.916
353.5000	276.011
354.0000	276.064
354.5000	276.084
355.0000	276.18
355.5000	276.263
356.0000	276.347
356.5000	276.458
357.0000	276.572
357.5000	276.693
358.0000	276.824
358.5000	276.959
359.0000	276.952
359.5000	276.984
360.0000	277.039
360.5000	277.05
361.0000	277.205
361.5000	277.323
362.0000	277.413
362.5000	277.502
363.0000	277.587
363.5000	277.689
364.0000	277.727
364.5000	277.802
365.0000	277.852
365.5000	277.889
366.0000	278.067
366.5000	278.228
367.0000	278.287
367.5000	278.426
368.0000	278.525
368.5000	278.506
369.0000	278.622
369.5000	278.711
370.0000	278.76
370.5000	278.841
371.0000	278.914
371.5000	279.013
372.0000	279.06
372.5000	279.21
373.0000	279.27
373.5000	279.329
374.0000	279.374
374.5000	279.43
375.0000	279.528
375.5000	279.617
376.0000	279.744
376.5000	279.813
377.0000	279.92
377.5000	279.969
378.0000	280.066
378.5000	280.204
379.0000	280.273
379.5000	280.336
380.0000	280.417
380.5000	280.439
381.0000	280.545
381.5000	280.685
382.0000	280.773
382.5000	280.85
383.0000	280.91
383.5000	280.958
384.0000	281.028
384.5000	281.131
385.0000	281.223
385.5000	281.272
386.0000	281.321
386.5000	281.368
387.0000	281.465
387.5000	281.573
388.0000	281.641
388.5000	281.704
389.0000	281.791
389.5000	281.892
390.0000	282.033
390.5000	282.181
391.0000	282.247
391.5000	282.346
392.0000	282.437
392.5000	282.501
393.0000	282.548
393.5000	282.625
394.0000	282.67
394.5000	282.731
395.0000	282.892
395.5000	282.951
396.0000	283.038
396.5000	283.135
397.0000	283.176
397.5000	283.262
398.0000	283.376
398.5000	283.447
399.0000	283.518
399.5000	283.56
400.0000	283.609
400.5000	283.729
401.0000	283.845
401.5000	283.962
402.0000	284.08
402.5000	284.158
403.0000	284.245
403.5000	284.33
404.0000	284.394
404.5000	284.507
405.0000	284.564
405.5000	284.672
406.0000	284.725
406.5000	284.811
407.0000	284.916
407.5000	285.029
408.0000	285.155
408.5000	285.212
409.0000	285.295
409.5000	285.347
410.0000	285.392
410.5000	285.42
411.0000	285.459
411.5000	285.525
412.0000	285.628
412.5000	285.685
413.0000	285.801
413.5000	285.897
414.0000	285.96
414.5000	286.117
415.0000	286.194
415.5000	286.275
416.0000	286.384
416.5000	286.499
417.0000	286.563
417.5000	286.664
418.0000	286.716
418.5000	286.714
419.0000	286.843
419.5000	286.839
420.0000	286.971
420.5000	287.088
421.0000	287.142
421.5000	287.272
422.0000	287.365
422.5000	287.428
423.0000	287.518
423.5000	287.656
424.0000	287.727
424.5000	287.839
425.0000	287.941
425.5000	287.995
426.0000	288.073
426.5000	288.175
427.0000	288.237
427.5000	288.264
428.0000	288.315
428.5000	288.386
429.0000	288.444
429.5000	288.608
430.0000	288.753
430.5000	288.815
431.0000	288.936
431.5000	289.041
432.0000	289.087
432.5000	289.164
433.0000	289.259
433.5000	289.325
434.0000	289.436
434.5000	289.569
435.0000	289.587
435.5000	289.691
436.0000	289.775
436.5000	289.838
437.0000	289.98
437.5000	289.988
438.0000	290.061
438.5000	290.126
439.0000	290.159
439.5000	290.28
440.0000	290.393
440.5000	290.516
441.0000	290.618
441.5000	290.72
442.0000	290.767
442.5000	290.811
443.0000	290.943
443.5000	290.994
444.0000	291.077
444.5000	291.242
445.0000	291.377
445.5000	291.52
446.0000	291.648
446.5000	291.688
447.0000	291.763
447.5000	291.871
448.0000	291.936
448.5000	292.022
449.0000	292.113
449.5000	292.189
450.0000	292.26
450.5000	292.347
451.0000	292.404
451.5000	292.483
452.0000	292.615
452.5000	292.725
453.0000	292.824
453.5000	292.88
454.0000	292.969
454.5000	293.037
455.0000	293.104
455.5000	293.172
456.0000	293.262
456.5000	293.41
457.0000	293.499
457.5000	293.697
458.0000	293.82
458.5000	293.888
459.0000	293.978
459.5000	293.985
460.0000	294.067
460.5000	294.186
461.0000	294.311
461.5000	294.455
462.0000	294.501
462.5000	294.591
463.0000	294.699
463.5000	294.77
464.0000	294.897
464.5000	294.964
465.0000	295.1
465.5000	295.217
466.0000	295.335
466.5000	295.486
467.0000	295.609
467.5000	295.717
468.0000	295.826
468.5000	295.916
469.0000	295.855
469.5000	295.956
470.0000	296.088
470.5000	296.157
471.0000	296.371
471.5000	296.51
472.0000	296.525
472.5000	296.609
473.0000	296.693
473.5000	296.757
474.0000	296.922
474.5000	297.044
475.0000	297.159
475.5000	297.263
476.0000	297.404
476.5000	297.51
477.0000	297.658
477.5000	297.799
478.0000	297.871
478.5000	297.999
479.0000	298.077
479.5000	298.168
480.0000	298.258
480.5000	298.381
481.0000	298.528
481.5000	298.666
482.0000	298.832
482.5000	299.005
483.0000	299.057
483.5000	299.229
484.0000	299.311
484.5000	299.39
485.0000	299.52
485.5000	299.582
486.0000	299.722
486.5000	299.815
487.0000	299.991
487.5000	300.073
488.0000	300.184
488.5000	300.328
489.0000	300.453
489.5000	300.568
490.0000	300.704
490.5000	300.808
491.0000	300.909
491.5000	301.087
492.0000	301.195
492.5000	301.377
493.0000	301.633
493.5000	301.805
494.0000	301.964
494.5000	302.084
495.0000	302.128
495.5000	302.229
496.0000	302.384
496.5000	302.523
497.0000	302.637
497.5000	302.881
498.0000	302.99
498.5000	303.136
499.0000	303.283
499.5000	303.316
500.0000	303.442
500.5000	303.586
501.0000	303.743
501.5000	303.917
502.0000	304.144
502.5000	304.291
503.0000	304.488
503.5000	304.609
504.0000	304.733
504.5000	304.876
505.0000	304.88
505.5000	305.106
506.0000	305.261
506.5000	305.375
507.0000	305.615
507.5000	305.719
508.0000	305.858
508.5000	306.079
509.0000	306.246
509.5000	306.396
510.0000	306.574
510.5000	306.724
511.0000	306.878
511.5000	307.016
512.0000	307.157
512.5000	307.333
513.0000	307.516
513.5000	307.752
514.0000	307.915
514.5000	308.019
515.0000	308.208
515.5000	308.352
516.0000	308.493
516.5000	308.721
517.0000	308.917
517.5000	309.056
518.0000	309.245
518.5000	309.428
519.0000	309.535
519.5000	309.775
520.0000	309.974
520.5000	310.114
521.0000	310.302
521.5000	310.425
522.0000	310.619
522.5000	310.816
523.0000	310.976
523.5000	311.113
524.0000	311.238
524.5000	311.43
525.0000	311.632
525.5000	311.912
526.0000	312.146
526.5000	312.307
527.0000	312.528
527.5000	312.65
528.0000	312.814
528.5000	313.008
529.0000	313.141
529.5000	313.351
530.0000	313.523
530.5000	313.748
531.0000	313.941
531.5000	314.133
532.0000	314.315
532.5000	314.499
533.0000	314.663
533.5000	314.8
534.0000	315.025
534.5000	315.147
535.0000	315.354
535.5000	315.562
536.0000	315.768
536.5000	315.98
537.0000	316.145
537.5000	316.365
538.0000	316.51
538.5000	316.693
539.0000	316.892
539.5000	316.984
540.0000	317.2
540.5000	317.389
541.0000	317.579
541.5000	317.841
542.0000	318.067
542.5000	318.277
543.0000	318.431
543.5000	318.618
544.0000	318.764
544.5000	318.941
545.0000	319.173
545.5000	319.322
546.0000	319.505
546.5000	319.662
547.0000	319.832
547.5000	320.037
548.0000	320.177
548.5000	320.326
549.0000	320.553
549.5000	320.697
550.0000	320.854
550.5000	321.104
551.0000	321.257
551.5000	321.49
552.0000	321.72
552.5000	321.901
553.0000	322.08
553.5000	322.31
554.0000	322.53
554.5000	322.689
555.0000	322.824
555.5000	322.917
556.0000	323.048
556.5000	323.177
557.0000	323.387
