TITLE	
DATA TYPE	
ORIGIN	JASCO
OWNER	
DATE	22/04/20
TIME	09:21:15
SPECTROMETER/DATA SYSTEM	
RESOLUTION	
DELTAX	0.5
XUNITS	SEC
YUNITS	INTENSITY
FIRSTX	0.0000
LASTX	2281.0000
NPOINTS	4563
FIRSTY	447.33148
MAXY	459.25253
MINY	-129.01566
XYDATA
0.0000	447.331
0.5000	446.98
1.0000	446.774
1.5000	446.556
2.0000	446.519
2.5000	446.447
3.0000	446.349
3.5000	446.22
4.0000	446.099
4.5000	446.101
5.0000	446.123
5.5000	446.141
6.0000	446.19
6.5000	446.143
7.0000	446.142
7.5000	446.253
8.0000	446.277
8.5000	446.277
9.0000	446.427
9.5000	446.43
10.0000	446.368
10.5000	446.496
11.0000	446.478
11.5000	446.485
12.0000	446.563
12.5000	446.56
13.0000	446.47
13.5000	446.433
14.0000	446.501
14.5000	446.416
15.0000	446.39
15.5000	446.408
16.0000	446.315
16.5000	446.448
17.0000	446.528
17.5000	446.585
18.0000	446.636
18.5000	446.56
19.0000	446.557
19.5000	446.484
20.0000	446.578
20.5000	446.657
21.0000	446.644
21.5000	446.82
22.0000	446.751
22.5000	446.654
23.0000	446.712
23.5000	446.663
24.0000	446.638
24.5000	446.651
25.0000	446.706
25.5000	446.642
26.0000	446.665
26.5000	446.679
27.0000	446.694
27.5000	446.741
28.0000	446.775
28.5000	446.874
29.0000	446.854
29.5000	446.964
30.0000	446.99
30.5000	447.027
31.0000	447.09
31.5000	447.066
32.0000	447.057
32.5000	446.987
33.0000	446.945
33.5000	446.926
34.0000	446.934
34.5000	447.057
35.0000	447.212
35.5000	447.252
36.0000	447.32
36.5000	447.347
37.0000	447.285
37.5000	447.245
38.0000	443.42
38.5000	426.868
39.0000	401.364
39.5000	331.081
40.0000	-129.016
40.5000	-50.9079
41.0000	-35.0028
41.5000	-31.1311
42.0000	-29.4372
42.5000	-28.4131
43.0000	-27.7263
43.5000	-27.2542
44.0000	-26.8771
44.5000	-26.4976
45.0000	-26.2049
45.5000	248.176
46.0000	237.145
46.5000	235.058
47.0000	234.059
47.5000	215.348
48.0000	216.28
48.5000	216.298
49.0000	216.279
49.5000	216.333
50.0000	216.439
50.5000	216.478
51.0000	216.582
51.5000	216.668
52.0000	216.726
52.5000	216.854
53.0000	216.904
53.5000	217.02
54.0000	217.085
54.5000	217.05
55.0000	216.979
55.5000	216.904
56.0000	216.907
56.5000	217.035
57.0000	217.291
57.5000	217.539
58.0000	217.731
58.5000	217.92
59.0000	218.076
59.5000	218.238
60.0000	218.389
60.5000	218.513
61.0000	218.638
61.5000	218.795
62.0000	218.926
62.5000	219.045
63.0000	219.146
63.5000	219.198
64.0000	219.349
64.5000	219.442
65.0000	219.565
65.5000	219.732
66.0000	219.8
66.5000	219.89
67.0000	220.057
67.5000	220.155
68.0000	220.269
68.5000	220.422
69.0000	220.552
69.5000	220.707
70.0000	220.883
70.5000	221.072
71.0000	221.176
71.5000	221.256
72.0000	221.393
72.5000	221.532
73.0000	221.667
73.5000	221.83
74.0000	221.896
74.5000	222.03
75.0000	222.152
75.5000	222.25
76.0000	222.426
76.5000	222.45
77.0000	222.569
77.5000	222.698
78.0000	222.858
78.5000	223.037
79.0000	223.191
79.5000	223.354
80.0000	223.458
80.5000	223.607
81.0000	223.768
81.5000	223.901
82.0000	224.012
82.5000	224.121
83.0000	224.2
83.5000	224.357
84.0000	224.492
84.5000	224.655
85.0000	224.792
85.5000	224.867
86.0000	225.027
86.5000	225.16
87.0000	225.235
87.5000	225.355
88.0000	225.477
88.5000	225.609
89.0000	225.83
89.5000	225.974
90.0000	226.117
90.5000	226.229
91.0000	226.344
91.5000	226.475
92.0000	226.593
92.5000	226.771
93.0000	226.903
93.5000	227.038
94.0000	227.205
94.5000	227.28
95.0000	227.391
95.5000	227.503
96.0000	227.62
96.5000	227.769
97.0000	227.962
97.5000	228.171
98.0000	228.259
98.5000	228.397
99.0000	228.492
99.5000	228.537
100.0000	228.675
100.5000	228.801
101.0000	228.895
101.5000	229.071
102.0000	229.189
102.5000	229.33
103.0000	229.505
103.5000	229.622
104.0000	229.768
104.5000	229.902
105.0000	229.961
105.5000	230.113
106.0000	230.251
106.5000	230.356
107.0000	230.52
107.5000	230.597
108.0000	230.697
108.5000	230.873
109.0000	230.986
109.5000	231.122
110.0000	231.295
110.5000	231.391
111.0000	231.551
111.5000	231.684
112.0000	231.759
112.5000	231.818
113.0000	231.898
113.5000	232.02
114.0000	232.202
114.5000	232.383
115.0000	232.537
115.5000	232.671
116.0000	232.778
116.5000	232.911
117.0000	233.041
117.5000	233.178
118.0000	233.281
118.5000	233.386
119.0000	233.516
119.5000	233.619
120.0000	233.728
120.5000	233.848
121.0000	233.921
121.5000	234.091
122.0000	234.188
122.5000	234.29
123.0000	234.425
123.5000	234.525
124.0000	234.685
124.5000	234.787
125.0000	234.907
125.5000	235
126.0000	235.114
126.5000	235.287
127.0000	235.453
127.5000	235.529
128.0000	235.676
128.5000	235.798
129.0000	235.898
129.5000	236.097
130.0000	236.181
130.5000	236.31
131.0000	236.403
131.5000	236.497
132.0000	236.664
132.5000	236.745
133.0000	236.891
133.5000	237.008
134.0000	237.054
134.5000	237.174
135.0000	237.299
135.5000	237.483
136.0000	237.611
136.5000	237.713
137.0000	237.815
137.5000	237.844
138.0000	238.013
138.5000	238.18
139.0000	238.322
139.5000	238.437
140.0000	238.512
140.5000	238.652
141.0000	238.714
141.5000	238.872
142.0000	239.028
142.5000	239.117
143.0000	239.284
143.5000	239.393
144.0000	239.503
144.5000	239.601
145.0000	239.7
145.5000	239.758
146.0000	239.885
146.5000	239.968
147.0000	240.068
147.5000	240.276
148.0000	240.369
148.5000	240.492
149.0000	240.604
149.5000	240.727
150.0000	240.799
150.5000	240.927
151.0000	241.075
151.5000	241.088
152.0000	241.231
152.5000	241.404
153.0000	241.546
153.5000	241.657
154.0000	241.69
154.5000	241.792
155.0000	241.879
155.5000	242.05
156.0000	242.233
156.5000	242.336
157.0000	242.429
157.5000	242.591
158.0000	242.743
158.5000	242.886
159.0000	242.979
159.5000	243.062
160.0000	243.162
160.5000	243.225
161.0000	243.405
161.5000	243.5
162.0000	243.656
162.5000	243.809
163.0000	243.916
163.5000	244.008
164.0000	244.12
164.5000	244.258
165.0000	244.42
165.5000	244.563
166.0000	244.691
166.5000	244.81
167.0000	244.834
167.5000	244.94
168.0000	245.057
168.5000	245.12
169.0000	245.273
169.5000	245.445
170.0000	245.535
170.5000	245.667
171.0000	245.781
171.5000	245.88
172.0000	245.987
172.5000	246.041
173.0000	246.166
173.5000	246.251
174.0000	246.379
174.5000	246.527
175.0000	246.591
175.5000	246.718
176.0000	246.845
176.5000	247.016
177.0000	247.193
177.5000	247.257
178.0000	247.345
178.5000	247.441
179.0000	247.495
179.5000	247.59
180.0000	247.761
180.5000	247.842
181.0000	247.985
181.5000	248.17
182.0000	248.206
182.5000	248.326
183.0000	248.441
183.5000	248.548
184.0000	248.698
184.5000	248.817
185.0000	248.928
185.5000	249.049
186.0000	249.14
186.5000	249.227
187.0000	249.327
187.5000	249.464
188.0000	249.572
188.5000	249.744
189.0000	249.861
189.5000	249.976
190.0000	250.098
190.5000	250.192
191.0000	250.292
191.5000	250.368
192.0000	250.442
192.5000	250.519
193.0000	250.643
193.5000	250.736
194.0000	250.897
194.5000	250.977
195.0000	251.102
195.5000	251.232
196.0000	251.298
196.5000	251.435
197.0000	251.533
197.5000	251.628
198.0000	251.809
198.5000	251.903
199.0000	252.006
199.5000	252.106
200.0000	252.172
200.5000	252.323
201.0000	252.469
201.5000	252.6
202.0000	252.676
202.5000	252.79
203.0000	252.854
203.5000	252.924
204.0000	253.107
204.5000	253.181
205.0000	253.254
205.5000	253.418
206.0000	253.502
206.5000	253.64
207.0000	253.825
207.5000	253.925
208.0000	253.999
208.5000	254.076
209.0000	254.153
209.5000	254.23
210.0000	254.36
210.5000	254.484
211.0000	254.585
211.5000	254.697
212.0000	254.756
212.5000	254.849
213.0000	254.953
213.5000	255.057
214.0000	255.187
214.5000	255.321
215.0000	255.43
215.5000	255.531
216.0000	255.607
216.5000	255.67
217.0000	255.819
217.5000	255.981
218.0000	256.128
218.5000	256.199
219.0000	256.21
219.5000	256.29
220.0000	256.377
220.5000	256.559
221.0000	256.742
221.5000	256.835
222.0000	257.023
222.5000	257.099
223.0000	257.179
223.5000	257.288
224.0000	257.368
224.5000	257.487
225.0000	257.603
225.5000	257.758
226.0000	257.772
226.5000	257.902
227.0000	258.028
227.5000	258.045
228.0000	258.185
228.5000	258.335
229.0000	258.394
229.5000	258.492
230.0000	258.622
230.5000	258.699
231.0000	258.803
231.5000	258.936
232.0000	259.091
232.5000	259.172
233.0000	259.348
233.5000	259.492
234.0000	259.52
234.5000	259.592
235.0000	259.651
235.5000	259.712
236.0000	259.832
236.5000	259.937
237.0000	260.047
237.5000	260.156
238.0000	260.265
238.5000	260.392
239.0000	260.473
239.5000	260.59
240.0000	260.725
240.5000	260.836
241.0000	260.962
241.5000	261.093
242.0000	261.183
242.5000	261.243
243.0000	261.329
243.5000	261.419
244.0000	261.532
244.5000	261.695
245.0000	261.803
245.5000	261.912
246.0000	261.996
246.5000	262.035
247.0000	262.153
247.5000	262.286
248.0000	262.355
248.5000	262.502
249.0000	262.621
249.5000	262.666
250.0000	262.815
250.5000	262.913
251.0000	263.037
251.5000	263.163
252.0000	263.309
252.5000	263.464
253.0000	263.53
253.5000	263.587
254.0000	263.709
254.5000	263.752
255.0000	263.896
255.5000	264.04
256.0000	264.062
256.5000	264.165
257.0000	264.259
257.5000	264.316
258.0000	264.415
258.5000	264.526
259.0000	264.531
259.5000	264.707
260.0000	264.829
260.5000	264.951
261.0000	265.155
261.5000	265.237
262.0000	265.351
262.5000	265.449
263.0000	265.512
263.5000	265.608
264.0000	265.695
264.5000	265.816
265.0000	265.925
265.5000	266.037
266.0000	266.157
266.5000	266.248
267.0000	266.339
267.5000	266.422
268.0000	266.548
268.5000	266.628
269.0000	266.72
269.5000	266.873
270.0000	266.905
270.5000	267.033
271.0000	267.133
271.5000	267.203
272.0000	267.311
272.5000	267.392
273.0000	267.523
273.5000	267.602
274.0000	267.687
274.5000	267.764
275.0000	267.86
275.5000	267.985
276.0000	268.131
276.5000	268.209
277.0000	268.28
277.5000	268.375
278.0000	268.536
278.5000	268.658
279.0000	268.745
279.5000	268.86
280.0000	268.868
280.5000	268.971
281.0000	269.107
281.5000	269.155
282.0000	269.273
282.5000	269.361
283.0000	269.444
283.5000	269.59
284.0000	269.704
284.5000	269.841
285.0000	269.966
285.5000	270.027
286.0000	270.121
286.5000	270.203
287.0000	270.227
287.5000	270.32
288.0000	270.392
288.5000	270.444
289.0000	270.578
289.5000	270.738
290.0000	270.831
290.5000	270.944
291.0000	271.068
291.5000	271.146
292.0000	271.262
292.5000	271.425
293.0000	271.499
293.5000	271.617
294.0000	271.744
294.5000	271.855
295.0000	271.996
295.5000	272.08
296.0000	272.159
296.5000	272.197
297.0000	272.281
297.5000	272.372
298.0000	272.429
298.5000	272.619
299.0000	272.707
299.5000	272.79
300.0000	272.887
300.5000	272.885
301.0000	272.981
301.5000	273.057
302.0000	273.215
302.5000	273.293
303.0000	273.452
303.5000	273.545
304.0000	273.609
304.5000	273.793
305.0000	273.81
305.5000	273.928
306.0000	274.012
306.5000	274.086
307.0000	274.233
307.5000	274.374
308.0000	274.467
308.5000	274.518
309.0000	274.59
309.5000	274.653
310.0000	274.814
310.5000	274.966
311.0000	275.062
311.5000	275.089
312.0000	275.108
312.5000	275.209
313.0000	275.336
313.5000	275.483
314.0000	275.619
314.5000	275.685
315.0000	275.759
315.5000	275.847
316.0000	275.925
316.5000	276.017
317.0000	276.12
317.5000	276.27
318.0000	276.369
318.5000	276.455
319.0000	276.554
319.5000	276.606
320.0000	276.695
320.5000	276.769
321.0000	276.806
321.5000	276.856
322.0000	276.985
322.5000	277.071
323.0000	277.165
323.5000	277.323
324.0000	277.353
324.5000	277.449
325.0000	277.539
325.5000	277.606
326.0000	277.667
326.5000	277.802
327.0000	277.865
327.5000	277.973
328.0000	278.108
328.5000	278.132
329.0000	278.256
329.5000	278.322
330.0000	278.489
330.5000	278.625
331.0000	278.75
331.5000	278.836
332.0000	278.912
332.5000	279.022
333.0000	279.113
333.5000	279.24
334.0000	279.344
334.5000	279.405
335.0000	279.516
335.5000	279.615
336.0000	279.631
336.5000	279.784
337.0000	279.855
337.5000	279.913
338.0000	280.023
338.5000	280.107
339.0000	280.203
339.5000	280.253
340.0000	280.386
340.5000	280.502
341.0000	280.578
341.5000	280.702
342.0000	280.767
342.5000	280.803
343.0000	280.9
343.5000	281.043
344.0000	281.144
344.5000	281.305
345.0000	281.428
345.5000	281.506
346.0000	281.596
346.5000	281.651
347.0000	281.688
347.5000	281.792
348.0000	281.853
348.5000	281.872
349.0000	282.001
349.5000	282.077
350.0000	282.148
350.5000	282.304
351.0000	282.376
351.5000	282.444
352.0000	282.599
352.5000	282.588
353.0000	282.744
353.5000	282.882
354.0000	282.99
354.5000	283.179
355.0000	283.268
355.5000	283.323
356.0000	283.384
356.5000	283.459
357.0000	283.487
357.5000	283.622
358.0000	283.64
358.5000	283.704
359.0000	283.798
359.5000	283.818
360.0000	283.97
360.5000	284.054
361.0000	284.202
361.5000	284.345
362.0000	284.406
362.5000	284.518
363.0000	284.545
363.5000	284.609
364.0000	284.732
364.5000	284.784
365.0000	284.836
365.5000	284.927
366.0000	285.022
366.5000	285.11
367.0000	285.211
367.5000	285.276
368.0000	285.312
368.5000	285.459
369.0000	285.556
369.5000	285.682
370.0000	285.839
370.5000	285.891
371.0000	285.97
371.5000	285.982
372.0000	286.016
372.5000	286.094
373.0000	286.21
373.5000	286.348
374.0000	286.478
374.5000	286.588
375.0000	286.648
375.5000	286.761
376.0000	286.885
376.5000	286.97
377.0000	287.044
377.5000	287.053
378.0000	287.062
378.5000	287.16
379.0000	287.301
379.5000	287.438
380.0000	287.548
380.5000	287.63
381.0000	287.685
381.5000	287.796
382.0000	287.855
382.5000	287.936
383.0000	288.035
383.5000	288.095
384.0000	288.212
384.5000	288.304
385.0000	288.367
385.5000	288.479
386.0000	288.533
386.5000	288.617
387.0000	288.695
387.5000	288.784
388.0000	288.895
388.5000	288.964
389.0000	289.087
389.5000	289.134
390.0000	289.144
390.5000	289.275
391.0000	289.403
391.5000	289.497
392.0000	289.601
392.5000	289.69
393.0000	289.796
393.5000	289.849
394.0000	289.95
394.5000	289.973
395.0000	289.991
395.5000	290.101
396.0000	290.241
396.5000	290.362
397.0000	290.447
397.5000	290.547
398.0000	290.654
398.5000	290.728
399.0000	290.815
399.5000	290.962
400.0000	290.965
400.5000	291.053
401.0000	291.142
401.5000	291.159
402.0000	291.272
402.5000	291.38
403.0000	291.458
403.5000	291.523
404.0000	291.645
404.5000	291.801
405.0000	291.876
405.5000	291.984
406.0000	292.058
406.5000	292.068
407.0000	292.173
407.5000	292.27
408.0000	292.391
408.5000	292.43
409.0000	292.535
409.5000	292.645
410.0000	292.709
410.5000	292.934
411.0000	292.974
411.5000	293.017
412.0000	293.081
412.5000	292.989
413.0000	293.059
413.5000	293.117
414.0000	293.25
414.5000	293.385
415.0000	293.488
415.5000	293.638
416.0000	293.66
416.5000	293.77
417.0000	293.873
417.5000	293.922
418.0000	294.05
418.5000	294.16
419.0000	294.274
419.5000	294.388
420.0000	294.435
420.5000	294.513
421.0000	294.594
421.5000	294.658
422.0000	294.773
422.5000	294.855
423.0000	294.873
423.5000	294.996
424.0000	295.056
424.5000	295.145
425.0000	295.28
425.5000	295.323
426.0000	295.38
426.5000	295.426
427.0000	295.516
427.5000	295.636
428.0000	295.841
428.5000	295.955
429.0000	296.038
429.5000	296.133
430.0000	296.11
430.5000	296.106
431.0000	296.188
431.5000	296.281
432.0000	296.389
432.5000	296.565
433.0000	296.676
433.5000	296.742
434.0000	296.808
434.5000	296.822
435.0000	296.911
435.5000	296.942
436.0000	297.054
436.5000	297.185
437.0000	297.204
437.5000	297.306
438.0000	297.401
438.5000	297.47
439.0000	297.561
439.5000	297.639
440.0000	297.678
440.5000	297.775
441.0000	297.882
441.5000	298.021
442.0000	298.125
442.5000	298.216
443.0000	298.265
443.5000	298.306
444.0000	298.392
444.5000	298.489
445.0000	298.55
445.5000	298.624
446.0000	298.641
446.5000	298.721
447.0000	298.82
447.5000	298.919
448.0000	299.141
448.5000	299.241
449.0000	299.34
449.5000	299.428
450.0000	299.431
450.5000	299.502
451.0000	299.593
451.5000	299.648
452.0000	299.817
452.5000	299.914
453.0000	300.047
453.5000	300.196
454.0000	300.173
454.5000	300.219
455.0000	300.278
455.5000	300.308
456.0000	300.41
456.5000	300.581
457.0000	300.681
457.5000	300.762
458.0000	300.89
458.5000	300.925
459.0000	300.97
459.5000	301.052
460.0000	301.146
460.5000	301.19
461.0000	301.35
461.5000	301.467
462.0000	301.492
462.5000	301.568
463.0000	301.552
463.5000	301.628
464.0000	301.762
464.5000	301.871
465.0000	301.991
465.5000	302.028
466.0000	302.154
466.5000	302.253
467.0000	302.362
467.5000	302.512
468.0000	302.565
468.5000	302.613
469.0000	302.688
469.5000	302.748
470.0000	302.749
470.5000	302.849
471.0000	302.913
471.5000	303.043
472.0000	303.177
472.5000	303.264
473.0000	303.341
473.5000	303.366
474.0000	303.409
474.5000	303.496
475.0000	303.615
475.5000	303.652
476.0000	303.752
476.5000	303.767
477.0000	303.805
477.5000	303.918
478.0000	304.032
478.5000	304.145
479.0000	304.264
479.5000	304.389
480.0000	304.501
480.5000	304.659
481.0000	304.747
481.5000	304.903
482.0000	304.942
482.5000	304.986
483.0000	305.041
483.5000	305.061
484.0000	305.151
484.5000	305.288
485.0000	305.44
485.5000	305.492
486.0000	305.579
486.5000	305.654
487.0000	305.726
487.5000	305.813
488.0000	305.893
488.5000	305.979
489.0000	306.08
489.5000	306.184
490.0000	306.266
490.5000	306.322
491.0000	306.344
491.5000	306.41
492.0000	306.54
492.5000	306.652
493.0000	306.765
493.5000	306.893
494.0000	306.938
494.5000	307.027
495.0000	307.073
495.5000	307.135
496.0000	307.259
496.5000	307.34
497.0000	307.498
497.5000	307.598
498.0000	307.726
498.5000	307.853
499.0000	307.906
499.5000	308.014
500.0000	308.098
500.5000	308.142
501.0000	308.256
501.5000	308.331
502.0000	308.387
502.5000	308.479
503.0000	308.599
503.5000	308.742
504.0000	308.829
504.5000	309.008
505.0000	309.113
505.5000	309.189
506.0000	309.334
506.5000	309.356
507.0000	309.464
507.5000	309.549
508.0000	309.645
508.5000	309.79
509.0000	309.867
509.5000	310.025
510.0000	310.145
510.5000	310.248
511.0000	310.393
511.5000	310.541
512.0000	310.682
512.5000	310.762
513.0000	310.883
513.5000	310.931
514.0000	310.98
514.5000	311.17
515.0000	311.242
515.5000	311.362
516.0000	311.514
516.5000	311.588
517.0000	311.77
517.5000	311.894
518.0000	312.066
518.5000	312.213
519.0000	312.267
519.5000	312.373
520.0000	312.454
520.5000	312.582
521.0000	312.809
521.5000	312.975
522.0000	313.097
522.5000	313.225
523.0000	313.323
523.5000	313.507
524.0000	313.657
524.5000	313.781
525.0000	313.866
525.5000	313.967
526.0000	314.091
526.5000	314.256
527.0000	314.443
527.5000	314.602
528.0000	314.804
528.5000	314.991
529.0000	315.174
529.5000	315.273
530.0000	315.469
530.5000	315.578
531.0000	315.725
531.5000	315.947
532.0000	316.046
532.5000	316.251
533.0000	316.4
533.5000	316.493
534.0000	316.64
534.5000	316.833
535.0000	316.995
535.5000	317.225
536.0000	317.493
536.5000	317.661
537.0000	317.809
537.5000	318.027
538.0000	318.129
538.5000	318.259
539.0000	318.488
539.5000	318.588
540.0000	318.751
540.5000	318.944
541.0000	319.127
541.5000	319.303
542.0000	319.491
542.5000	319.587
543.0000	319.723
543.5000	319.892
544.0000	320.056
544.5000	320.324
545.0000	320.485
545.5000	320.692
546.0000	320.854
546.5000	321.016
547.0000	321.234
547.5000	321.402
548.0000	321.569
548.5000	321.751
549.0000	321.893
549.5000	322.123
550.0000	322.392
550.5000	322.572
551.0000	322.778
551.5000	322.922
552.0000	323.027
552.5000	323.216
553.0000	323.365
553.5000	323.55
554.0000	323.667
554.5000	323.815
555.0000	324.003
555.5000	324.185
556.0000	324.403
556.5000	324.571
557.0000	324.77
